%OpenBCI Raw EXG Data
%Number of channels = 8
%Sample Rate = 250 Hz
%Board = OpenBCI_GUI$BoardCytonSerial
Sample Index, EXG Channel 0, EXG Channel 1, EXG Channel 2, EXG Channel 3, EXG Channel 4, EXG Channel 5, EXG Channel 6, EXG Channel 7, Accel Channel 0, Accel Channel 1, Accel Channel 2, Other, Other, Other, Other, Other, Other, Other, Analog Channel 0, Analog Channel 1, Analog Channel 2, Timestamp, Other, Timestamp (Formatted)
0.0, 0.0, 0.0, 0.0, 0.0, 0.0, 0.0, 0.0, 0.0, 0.0, 0.0, 0.0, 192.0, 0.0, 0.0, 0.0, 0.0, 0.0, 0.0, 0.0, 0.0, 0.0, 1.7172382324624288E9, 0.0, 2024-06-01 03:37:12.462
1.0, 187500.0, -26247.072368511246, 187500.0, 187500.0, 187500.0, 187500.0, 187500.0, -87594.69838079196, 0.022, -0.004, 0.982, 192.0, 0.0, 176.0, 255.0, 224.0, 30.0, 176.0, 0.0, 0.0, 0.0, 1.7172382329494228E9, 0.0, 2024-06-01 03:37:12.949
2.0, 187500.0, -26248.413473178563, 187500.0, 187500.0, 187500.0, 187500.0, 187500.0, -87592.28439239078, 0.022, -0.004, 0.982, 192.0, 0.0, 0.0, 0.0, 0.0, 0.0, 0.0, 0.0, 0.0, 0.0, 1.717238232949468E9, 0.0, 2024-06-01 03:37:12.949
3.0, 187500.0, -26255.275458726344, 187500.0, 187500.0, 187500.0, 187500.0, 187500.0, -87584.01424694232, 0.022, -0.004, 0.982, 192.0, 0.0, 0.0, 0.0, 0.0, 0.0, 0.0, 0.0, 0.0, 0.0, 1.7172382329494944E9, 0.0, 2024-06-01 03:37:12.949
4.0, 187500.0, -26251.788586591316, 187500.0, 187500.0, 187500.0, 187500.0, 187500.0, -87582.00258994134, 0.022, -0.004, 0.982, 192.0, 0.0, 0.0, 0.0, 0.0, 0.0, 0.0, 0.0, 0.0, 0.0, 1.7172382329495215E9, 0.0, 2024-06-01 03:37:12.949
5.0, 187500.0, -26240.791528319303, 187500.0, 187500.0, 187500.0, 187500.0, 187500.0, -87580.70618876294, 0.022, -0.004, 0.982, 192.0, 0.0, 0.0, 0.0, 0.0, 0.0, 0.0, 0.0, 0.0, 0.0, 1.717238232949545E9, 0.0, 2024-06-01 03:37:12.949
6.0, 187500.0, -26238.48929864041, 187500.0, 187500.0, 187500.0, 187500.0, 187500.0, -87580.99676144085, 0.022, -0.004, 0.982, 192.0, 0.0, 0.0, 0.0, 0.0, 0.0, 0.0, 0.0, 0.0, 0.0, 1.717238232949567E9, 0.0, 2024-06-01 03:37:12.949
7.0, 187500.0, -26240.970342274948, 187500.0, 187500.0, 187500.0, 187500.0, 187500.0, -87573.71009274841, 0.022, -0.004, 0.982, 192.0, 0.0, 0.0, 0.0, 0.0, 0.0, 0.0, 0.0, 0.0, 0.0, 1.71723823294959E9, 0.0, 2024-06-01 03:37:12.949
8.0, 187500.0, -26252.749711602894, 187500.0, 187500.0, 187500.0, 187500.0, 187500.0, -87578.78393873977, 0.024, -0.006, 0.984, 192.0, 0.0, 192.0, 255.0, 208.0, 30.0, 192.0, 0.0, 0.0, 0.0, 1.7172382329496136E9, 0.0, 2024-06-01 03:37:12.949
9.0, 187500.0, -26256.594211649208, 187500.0, 187500.0, 187500.0, 187500.0, 187500.0, -87595.01130521433, 0.024, -0.006, 0.984, 192.0, 0.0, 0.0, 0.0, 0.0, 0.0, 0.0, 0.0, 0.0, 0.0, 1.71723823294963E9, 0.0, 2024-06-01 03:37:12.949
10.0, 187500.0, -26248.972266789948, 187500.0, 187500.0, 187500.0, 187500.0, 187500.0, -87593.37962786909, 0.024, -0.006, 0.984, 192.0, 0.0, 0.0, 0.0, 0.0, 0.0, 0.0, 0.0, 0.0, 0.0, 1.717238232949643E9, 0.0, 2024-06-01 03:37:12.949
11.0, 187500.0, -26254.51549941486, 187500.0, 187500.0, 187500.0, 187500.0, 187500.0, -87584.61774404261, 0.024, -0.006, 0.984, 192.0, 0.0, 0.0, 0.0, 0.0, 0.0, 0.0, 0.0, 0.0, 0.0, 1.7172382329496553E9, 0.0, 2024-06-01 03:37:12.949
12.0, 187500.0, -26248.458176667475, 187500.0, 187500.0, 187500.0, 187500.0, 187500.0, -87579.43213932899, 0.024, -0.006, 0.984, 192.0, 0.0, 0.0, 0.0, 0.0, 0.0, 0.0, 0.0, 0.0, 0.0, 1.7172382329496677E9, 0.0, 2024-06-01 03:37:12.949
13.0, 187500.0, -26238.265781195856, 187500.0, 187500.0, 187500.0, 187500.0, 187500.0, -87597.4252936155, 0.024, -0.006, 0.984, 192.0, 0.0, 0.0, 0.0, 0.0, 0.0, 0.0, 0.0, 0.0, 0.0, 1.71723823294968E9, 0.0, 2024-06-01 03:37:12.949
14.0, 187500.0, -26233.929542771526, 187500.0, 187500.0, 187500.0, 187500.0, 187500.0, -87592.48555809088, 0.024, -0.006, 0.984, 192.0, 0.0, 0.0, 0.0, 0.0, 0.0, 0.0, 0.0, 0.0, 0.0, 1.7172382329496925E9, 0.0, 2024-06-01 03:37:12.949
15.0, 187500.0, -26243.42903416503, 187500.0, 187500.0, 187500.0, 187500.0, 187500.0, -87581.30968586322, 0.024, -0.006, 0.984, 192.0, 0.0, 0.0, 0.0, 0.0, 0.0, 0.0, 0.0, 0.0, 0.0, 1.717238232949705E9, 0.0, 2024-06-01 03:37:12.949
16.0, 187500.0, -26255.633086637627, 187500.0, 187500.0, 187500.0, 187500.0, 187500.0, -87578.35925559512, 0.024, -0.006, 0.984, 192.0, 0.0, 0.0, 0.0, 0.0, 0.0, 0.0, 0.0, 0.0, 0.0, 1.7172382329498622E9, 0.0, 2024-06-01 03:37:12.949
17.0, 187500.0, -26255.498976170897, 187500.0, 187500.0, 187500.0, 187500.0, 187500.0, -87597.80527327124, 0.024, -0.006, 0.984, 192.0, 0.0, 0.0, 0.0, 0.0, 0.0, 0.0, 0.0, 0.0, 0.0, 1.717238232949876E9, 0.0, 2024-06-01 03:37:12.949
18.0, 187500.0, -26242.043226008802, 187500.0, 187500.0, 187500.0, 187500.0, 187500.0, -87583.79072949776, 0.024, -0.008, 0.978, 192.0, 0.0, 192.0, 255.0, 192.0, 30.0, 144.0, 0.0, 0.0, 0.0, 1.7172382329498885E9, 0.0, 2024-06-01 03:37:12.949
19.0, 187500.0, -26248.01114177837, 187500.0, 187500.0, 187500.0, 187500.0, 187500.0, -87577.12990965009, 0.024, -0.008, 0.978, 192.0, 0.0, 0.0, 0.0, 0.0, 0.0, 0.0, 0.0, 0.0, 0.0, 1.7172382329499016E9, 0.0, 2024-06-01 03:37:12.949
20.0, 187500.0, -26260.90809832908, 187500.0, 187500.0, 187500.0, 187500.0, 187500.0, -87595.12306393661, 0.024, -0.008, 0.978, 192.0, 0.0, 0.0, 0.0, 0.0, 0.0, 0.0, 0.0, 0.0, 0.0, 1.717238232949914E9, 0.0, 2024-06-01 03:37:12.949
21.0, 187500.0, -26252.28032496933, 187500.0, 187500.0, 187500.0, 187500.0, 187500.0, -87599.59341282767, 0.024, -0.008, 0.978, 192.0, 0.0, 0.0, 0.0, 0.0, 0.0, 0.0, 0.0, 0.0, 0.0, 1.7172382329499261E9, 0.0, 2024-06-01 03:37:12.949
22.0, 187500.0, -26252.28032496933, 187500.0, 187500.0, 187500.0, 187500.0, 187500.0, -87597.96173548243, 0.024, -0.008, 0.978, 192.0, 0.0, 0.0, 0.0, 0.0, 0.0, 0.0, 0.0, 0.0, 0.0, 1.7172382329499383E9, 0.0, 2024-06-01 03:37:12.949
23.0, 187500.0, -26259.0976070282, 187500.0, 187500.0, 187500.0, 187500.0, 187500.0, -87586.6741045325, 0.024, -0.008, 0.978, 192.0, 0.0, 0.0, 0.0, 0.0, 0.0, 0.0, 0.0, 0.0, 0.0, 1.7172382329499557E9, 0.0, 2024-06-01 03:37:12.949
24.0, 187500.0, -26256.415397693563, 187500.0, 187500.0, 187500.0, 187500.0, 187500.0, -87580.3709125961, 0.024, -0.008, 0.978, 192.0, 0.0, 0.0, 0.0, 0.0, 0.0, 0.0, 0.0, 0.0, 0.0, 1.717238232949968E9, 0.0, 2024-06-01 03:37:12.949
25.0, 187500.0, -26259.991676806414, 187500.0, 187500.0, 187500.0, 187500.0, 187500.0, -87600.71100005043, 0.024, -0.008, 0.978, 192.0, 0.0, 0.0, 0.0, 0.0, 0.0, 0.0, 0.0, 0.0, 0.0, 1.7172382329499803E9, 0.0, 2024-06-01 03:37:12.949
26.0, 187500.0, -26251.989752291414, 187500.0, 187500.0, 187500.0, 187500.0, 187500.0, -87604.6225553301, 0.024, -0.008, 0.978, 192.0, 0.0, 0.0, 0.0, 0.0, 0.0, 0.0, 0.0, 0.0, 0.0, 1.7172382329499924E9, 0.0, 2024-06-01 03:37:12.949
27.0, 187500.0, -26241.77500507534, 187500.0, 187500.0, 187500.0, 187500.0, 187500.0, -87590.65271504554, 0.024, -0.008, 0.978, 192.0, 0.0, 0.0, 0.0, 0.0, 0.0, 0.0, 0.0, 0.0, 0.0, 1.7172382329500048E9, 0.0, 2024-06-01 03:37:12.950
28.0, 187500.0, -26248.48052841193, 187500.0, 187500.0, 187500.0, 187500.0, 187500.0, -87581.55555505224, 0.016, -0.006, 0.982, 192.0, 0.0, 128.0, 255.0, 208.0, 30.0, 176.0, 0.0, 0.0, 0.0, 1.7172382329500172E9, 0.0, 2024-06-01 03:37:12.950
29.0, 187500.0, -26251.609772635675, 187500.0, 187500.0, 187500.0, 187500.0, 187500.0, -87587.23289814388, 0.016, -0.006, 0.982, 192.0, 0.0, 0.0, 0.0, 0.0, 0.0, 0.0, 0.0, 0.0, 0.0, 1.7172382329500299E9, 0.0, 2024-06-01 03:37:12.950
30.0, 187500.0, -26242.512612642364, 187500.0, 187500.0, 187500.0, 187500.0, 187500.0, -87582.11434866361, 0.016, -0.006, 0.982, 192.0, 0.0, 0.0, 0.0, 0.0, 0.0, 0.0, 0.0, 0.0, 0.0, 1.717238232950042E9, 0.0, 2024-06-01 03:37:12.950
31.0, 187500.0, -26244.948952787992, 187500.0, 187500.0, 187500.0, 187500.0, 187500.0, -87580.5273748073, 0.016, -0.006, 0.982, 192.0, 0.0, 0.0, 0.0, 0.0, 0.0, 0.0, 0.0, 0.0, 0.0, 1.7172382329500847E9, 0.0, 2024-06-01 03:37:12.950
32.0, 187500.0, -26259.365827961665, 187500.0, 187500.0, 187500.0, 187500.0, 187500.0, -87585.69062777646, 0.016, -0.006, 0.982, 192.0, 0.0, 0.0, 0.0, 0.0, 0.0, 0.0, 0.0, 0.0, 0.0, 1.7172382329500985E9, 0.0, 2024-06-01 03:37:12.950
33.0, 187500.0, -26267.747732132404, 187500.0, 187500.0, 187500.0, 187500.0, 187500.0, -87598.00643897134, 0.016, -0.006, 0.982, 192.0, 0.0, 0.0, 0.0, 0.0, 0.0, 0.0, 0.0, 0.0, 0.0, 1.7172382329501204E9, 0.0, 2024-06-01 03:37:12.950
34.0, 187500.0, -26253.86729882566, 187500.0, 187500.0, 187500.0, 187500.0, 187500.0, -87591.92676447949, 0.016, -0.006, 0.982, 192.0, 0.0, 0.0, 0.0, 0.0, 0.0, 0.0, 0.0, 0.0, 0.0, 1.717238232950133E9, 0.0, 2024-06-01 03:37:12.950
35.0, 187500.0, -26256.929487816036, 187500.0, 187500.0, 187500.0, 187500.0, 187500.0, -87592.26204064632, 0.016, -0.006, 0.982, 192.0, 0.0, 0.0, 0.0, 0.0, 0.0, 0.0, 0.0, 0.0, 0.0, 1.717238232950146E9, 0.0, 2024-06-01 03:37:12.950
36.0, 187500.0, -26253.442615681008, 187500.0, 187500.0, 187500.0, 187500.0, 187500.0, -87577.73340675037, 0.016, -0.006, 0.982, 192.0, 0.0, 0.0, 0.0, 0.0, 0.0, 0.0, 0.0, 0.0, 0.0, 1.717238232950158E9, 0.0, 2024-06-01 03:37:12.950
37.0, 187500.0, -26266.697200143004, 187500.0, 187500.0, 187500.0, 187500.0, 187500.0, -87592.10557843513, 0.012, -0.004, 0.986, 192.0, 0.0, 96.0, 255.0, 224.0, 30.0, 208.0, 0.0, 0.0, 0.0, 1.7172382329501705E9, 0.0, 2024-06-01 03:37:12.950
38.0, 187500.0, -26251.76623484686, 187500.0, 187500.0, 187500.0, 187500.0, 187500.0, -87593.98312496938, 0.012, -0.004, 0.986, 192.0, 0.0, 0.0, 0.0, 0.0, 0.0, 0.0, 0.0, 0.0, 0.0, 1.717238232950183E9, 0.0, 2024-06-01 03:37:12.950
39.0, 187500.0, -26244.457214409977, 187500.0, 187500.0, 187500.0, 187500.0, 187500.0, -87587.65758128853, 0.012, -0.004, 0.986, 192.0, 0.0, 0.0, 0.0, 0.0, 0.0, 0.0, 0.0, 0.0, 0.0, 1.717238232950195E9, 0.0, 2024-06-01 03:37:12.950
40.0, 187500.0, -26257.778854105338, 187500.0, 187500.0, 187500.0, 187500.0, 187500.0, -87580.61678178511, 0.012, -0.004, 0.986, 192.0, 0.0, 0.0, 0.0, 0.0, 0.0, 0.0, 0.0, 0.0, 0.0, 1.7172382329502072E9, 0.0, 2024-06-01 03:37:12.950
41.0, 187500.0, -26261.936278574023, 187500.0, 187500.0, 187500.0, 187500.0, 187500.0, -87577.30872360572, 0.012, -0.004, 0.986, 192.0, 0.0, 0.0, 0.0, 0.0, 0.0, 0.0, 0.0, 0.0, 0.0, 1.7172382329502192E9, 0.0, 2024-06-01 03:37:12.950
42.0, 187500.0, -26247.832327822725, 187500.0, 187500.0, 187500.0, 187500.0, 187500.0, -87580.75089225185, 0.012, -0.004, 0.986, 192.0, 0.0, 0.0, 0.0, 0.0, 0.0, 0.0, 0.0, 0.0, 0.0, 1.7172382329502316E9, 0.0, 2024-06-01 03:37:12.950
43.0, 187500.0, -26246.33476094422, 187500.0, 187500.0, 187500.0, 187500.0, 187500.0, -87587.74698826636, 0.012, -0.004, 0.986, 192.0, 0.0, 0.0, 0.0, 0.0, 0.0, 0.0, 0.0, 0.0, 0.0, 1.7172382329502437E9, 0.0, 2024-06-01 03:37:12.950
44.0, 187500.0, -26249.53106040133, 187500.0, 187500.0, 187500.0, 187500.0, 187500.0, -87573.08424390368, 0.012, -0.004, 0.986, 192.0, 0.0, 0.0, 0.0, 0.0, 0.0, 0.0, 0.0, 0.0, 0.0, 1.7172382329502583E9, 0.0, 2024-06-01 03:37:12.950
45.0, 187500.0, -26259.030551794836, 187500.0, 187500.0, 187500.0, 187500.0, 187500.0, -87565.55170602223, 0.012, -0.004, 0.986, 192.0, 0.0, 0.0, 0.0, 0.0, 0.0, 0.0, 0.0, 0.0, 0.0, 1.7172382329502704E9, 0.0, 2024-06-01 03:37:12.950
46.0, 187500.0, -26252.325028458243, 187500.0, 187500.0, 187500.0, 187500.0, 187500.0, -87574.35829333763, 0.012, -0.004, 0.986, 192.0, 0.0, 0.0, 0.0, 0.0, 0.0, 0.0, 0.0, 0.0, 0.0, 1.7172382329502935E9, 0.0, 2024-06-01 03:37:12.950
47.0, 187500.0, -26239.808051563272, 187500.0, 187500.0, 187500.0, 187500.0, 187500.0, -87564.50117403283, 0.012, -0.004, 0.988, 192.0, 0.0, 96.0, 255.0, 224.0, 30.0, 224.0, 0.0, 0.0, 0.0, 1.717238232950306E9, 0.0, 2024-06-01 03:37:12.950
48.0, 187500.0, -26250.87216506865, 187500.0, 187500.0, 187500.0, 187500.0, 187500.0, -87563.54004902125, 0.012, -0.004, 0.988, 192.0, 0.0, 0.0, 0.0, 0.0, 0.0, 0.0, 0.0, 0.0, 0.0, 1.7172382329503188E9, 0.0, 2024-06-01 03:37:12.950
49.0, 187500.0, -26262.91975533006, 187500.0, 187500.0, 187500.0, 187500.0, 187500.0, -87574.35829333763, 0.012, -0.004, 0.988, 192.0, 0.0, 0.0, 0.0, 0.0, 0.0, 0.0, 0.0, 0.0, 0.0, 1.7172382329503312E9, 0.0, 2024-06-01 03:37:12.950
50.0, 187500.0, -26256.415397693563, 187500.0, 187500.0, 187500.0, 187500.0, 187500.0, -87581.30968586322, 0.012, -0.004, 0.988, 192.0, 0.0, 0.0, 0.0, 0.0, 0.0, 0.0, 0.0, 0.0, 0.0, 1.7172382329503431E9, 0.0, 2024-06-01 03:37:12.950
51.0, 187500.0, -26230.0403392363, 187500.0, 187500.0, 187500.0, 187500.0, 187500.0, -87578.09103466166, 0.012, -0.004, 0.988, 192.0, 0.0, 0.0, 0.0, 0.0, 0.0, 0.0, 0.0, 0.0, 0.0, 1.7172382329503555E9, 0.0, 2024-06-01 03:37:12.950
52.0, 187500.0, -26227.492240368396, 187500.0, 187500.0, 187500.0, 187500.0, 187500.0, -87573.0171886703, 0.012, -0.004, 0.988, 192.0, 0.0, 0.0, 0.0, 0.0, 0.0, 0.0, 0.0, 0.0, 0.0, 1.7172382329503677E9, 0.0, 2024-06-01 03:37:12.950
53.0, 187500.0, -26246.15594698858, 187500.0, 187500.0, 187500.0, 187500.0, 187500.0, -87562.15424086503, 0.012, -0.004, 0.988, 192.0, 0.0, 0.0, 0.0, 0.0, 0.0, 0.0, 0.0, 0.0, 0.0, 1.71723823295038E9, 0.0, 2024-06-01 03:37:12.950
54.0, 187500.0, -26244.457214409977, 187500.0, 187500.0, 187500.0, 187500.0, 187500.0, -87556.52160126228, 0.012, -0.004, 0.988, 192.0, 0.0, 0.0, 0.0, 0.0, 0.0, 0.0, 0.0, 0.0, 0.0, 1.717238232950392E9, 0.0, 2024-06-01 03:37:12.950
55.0, 187500.0, -26240.210382963465, 187500.0, 187500.0, 187500.0, 187500.0, 187500.0, -87571.43021481398, 0.012, -0.004, 0.988, 192.0, 0.0, 0.0, 0.0, 0.0, 0.0, 0.0, 0.0, 0.0, 0.0, 1.717238232950404E9, 0.0, 2024-06-01 03:37:12.950
56.0, 187500.0, -26238.62340910714, 187500.0, 187500.0, 187500.0, 187500.0, 187500.0, -87566.08814788917, 0.012, -0.004, 0.988, 192.0, 0.0, 0.0, 0.0, 0.0, 0.0, 0.0, 0.0, 0.0, 0.0, 1.717238232950416E9, 0.0, 2024-06-01 03:37:12.950
57.0, 187500.0, -26245.395987677097, 187500.0, 187500.0, 187500.0, 187500.0, 187500.0, -87557.79565069624, 0.012, -0.002, 0.984, 192.0, 0.0, 96.0, 255.0, 240.0, 30.0, 192.0, 0.0, 0.0, 0.0, 1.7172382329504285E9, 0.0, 2024-06-01 03:37:12.950
58.0, 187500.0, -26247.96643828946, 187500.0, 187500.0, 187500.0, 187500.0, 187500.0, -87564.67998798848, 0.012, -0.002, 0.984, 192.0, 0.0, 0.0, 0.0, 0.0, 0.0, 0.0, 0.0, 0.0, 0.0, 1.7172382329504411E9, 0.0, 2024-06-01 03:37:12.950
59.0, 187500.0, -26246.312409199767, 187500.0, 187500.0, 187500.0, 187500.0, 187500.0, -87585.91414522102, 0.012, -0.002, 0.984, 192.0, 0.0, 0.0, 0.0, 0.0, 0.0, 0.0, 0.0, 0.0, 0.0, 1.7172382329504533E9, 0.0, 2024-06-01 03:37:12.950
60.0, 187500.0, -26238.8916300406, 187500.0, 187500.0, 187500.0, 187500.0, 187500.0, -87578.24749687285, 0.012, -0.002, 0.984, 192.0, 0.0, 0.0, 0.0, 0.0, 0.0, 0.0, 0.0, 0.0, 0.0, 1.7172382329504657E9, 0.0, 2024-06-01 03:37:12.950
61.0, 187500.0, -26244.591324876706, 187500.0, 187500.0, 187500.0, 187500.0, 187500.0, -87571.5643252807, 0.012, -0.002, 0.984, 192.0, 0.0, 0.0, 0.0, 0.0, 0.0, 0.0, 0.0, 0.0, 0.0, 1.7172382329505043E9, 0.0, 2024-06-01 03:37:12.950
62.0, 187500.0, -26248.033493522824, 187500.0, 187500.0, 187500.0, 187500.0, 187500.0, -87578.69453176195, 0.012, -0.002, 0.984, 192.0, 0.0, 0.0, 0.0, 0.0, 0.0, 0.0, 0.0, 0.0, 0.0, 1.7172382329505172E9, 0.0, 2024-06-01 03:37:12.950
63.0, 187500.0, -26241.61854286415, 187500.0, 187500.0, 187500.0, 187500.0, 187500.0, -87580.01328468481, 0.012, -0.002, 0.984, 192.0, 0.0, 0.0, 0.0, 0.0, 0.0, 0.0, 0.0, 0.0, 0.0, 1.7172382329505293E9, 0.0, 2024-06-01 03:37:12.950
64.0, 187500.0, -26241.57383937524, 187500.0, 187500.0, 187500.0, 187500.0, 187500.0, -87565.37289206659, 0.012, -0.002, 0.984, 192.0, 0.0, 0.0, 0.0, 0.0, 0.0, 0.0, 0.0, 0.0, 0.0, 1.7172382329505415E9, 0.0, 2024-06-01 03:37:12.950
65.0, 187500.0, -26244.077234754233, 187500.0, 187500.0, 187500.0, 187500.0, 187500.0, -87558.30974081872, 0.012, -0.002, 0.984, 192.0, 0.0, 0.0, 0.0, 0.0, 0.0, 0.0, 0.0, 0.0, 0.0, 1.7172382329505584E9, 0.0, 2024-06-01 03:37:12.950
66.0, 187500.0, -26249.464005167963, 187500.0, 187500.0, 187500.0, 187500.0, 187500.0, -87558.95794140792, 0.012, -0.002, 0.984, 192.0, 0.0, 0.0, 0.0, 0.0, 0.0, 0.0, 0.0, 0.0, 0.0, 1.7172382329505706E9, 0.0, 2024-06-01 03:37:12.950
67.0, 187500.0, -26241.81970856425, 187500.0, 187500.0, 187500.0, 187500.0, 187500.0, -87562.62362749859, 0.012, -0.004, 0.982, 192.0, 0.0, 96.0, 255.0, 224.0, 30.0, 176.0, 0.0, 0.0, 0.0, 1.7172382329505832E9, 0.0, 2024-06-01 03:37:12.950
68.0, 187500.0, -26232.499031126386, 187500.0, 187500.0, 187500.0, 187500.0, 187500.0, -87551.93949364896, 0.012, -0.004, 0.982, 192.0, 0.0, 0.0, 0.0, 0.0, 0.0, 0.0, 0.0, 0.0, 0.0, 1.717238232950596E9, 0.0, 2024-06-01 03:37:12.950
69.0, 187500.0, -26246.2453539664, 187500.0, 187500.0, 187500.0, 187500.0, 187500.0, -87554.35348205012, 0.012, -0.004, 0.982, 192.0, 0.0, 0.0, 0.0, 0.0, 0.0, 0.0, 0.0, 0.0, 0.0, 1.717238232950608E9, 0.0, 2024-06-01 03:37:12.950
70.0, 187500.0, -26256.3483424602, 187500.0, 187500.0, 187500.0, 187500.0, 187500.0, -87554.59935123913, 0.012, -0.004, 0.982, 192.0, 0.0, 0.0, 0.0, 0.0, 0.0, 0.0, 0.0, 0.0, 0.0, 1.7172382329506204E9, 0.0, 2024-06-01 03:37:12.950
71.0, 187500.0, -26247.34058944471, 187500.0, 187500.0, 187500.0, 187500.0, 187500.0, -87558.35444430762, 0.012, -0.004, 0.982, 192.0, 0.0, 0.0, 0.0, 0.0, 0.0, 0.0, 0.0, 0.0, 0.0, 1.7172382329506323E9, 0.0, 2024-06-01 03:37:12.950
72.0, 187500.0, -26241.283266697323, 187500.0, 187500.0, 187500.0, 187500.0, 187500.0, -87570.69260724695, 0.012, -0.004, 0.982, 192.0, 0.0, 0.0, 0.0, 0.0, 0.0, 0.0, 0.0, 0.0, 0.0, 1.7172382329506445E9, 0.0, 2024-06-01 03:37:12.950
73.0, 187500.0, -26238.265781195856, 187500.0, 187500.0, 187500.0, 187500.0, 187500.0, -87563.76356646582, 0.012, -0.004, 0.982, 192.0, 0.0, 0.0, 0.0, 0.0, 0.0, 0.0, 0.0, 0.0, 0.0, 1.717238232950657E9, 0.0, 2024-06-01 03:37:12.950
74.0, 187500.0, -26247.564106889262, 187500.0, 187500.0, 187500.0, 187500.0, 187500.0, -87562.35540656513, 0.012, -0.004, 0.982, 192.0, 0.0, 0.0, 0.0, 0.0, 0.0, 0.0, 0.0, 0.0, 0.0, 1.7172382329506688E9, 0.0, 2024-06-01 03:37:12.950
75.0, 187500.0, -26248.793452834303, 187500.0, 187500.0, 187500.0, 187500.0, 187500.0, -87564.63528449957, 0.012, -0.004, 0.982, 192.0, 0.0, 0.0, 0.0, 0.0, 0.0, 0.0, 0.0, 0.0, 0.0, 1.717238232950681E9, 0.0, 2024-06-01 03:37:12.950
76.0, 187500.0, -26232.297865426288, 187500.0, 187500.0, 187500.0, 187500.0, 187500.0, -87561.14841236454, 0.012, -0.004, 0.982, 192.0, 0.0, 0.0, 0.0, 0.0, 0.0, 0.0, 0.0, 0.0, 0.0, 1.7172382329506931E9, 0.0, 2024-06-01 03:37:12.950
77.0, 187500.0, -26233.258990437866, 187500.0, 187500.0, 187500.0, 187500.0, 187500.0, -87554.55464775022, 0.016, -0.004, 0.978, 192.0, 0.0, 128.0, 255.0, 224.0, 30.0, 144.0, 0.0, 0.0, 0.0, 1.7172382329507143E9, 0.0, 2024-06-01 03:37:12.950
78.0, 187500.0, -26245.23952546591, 187500.0, 187500.0, 187500.0, 187500.0, 187500.0, -87540.24953129883, 0.016, -0.004, 0.978, 192.0, 0.0, 0.0, 0.0, 0.0, 0.0, 0.0, 0.0, 0.0, 0.0, 1.7172382329507272E9, 0.0, 2024-06-01 03:37:12.950
79.0, 187500.0, -26250.87216506865, 187500.0, 187500.0, 187500.0, 187500.0, 187500.0, -87553.77233669428, 0.016, -0.004, 0.978, 192.0, 0.0, 0.0, 0.0, 0.0, 0.0, 0.0, 0.0, 0.0, 0.0, 1.7172382329507391E9, 0.0, 2024-06-01 03:37:12.950
80.0, 187500.0, -26248.257010967376, 187500.0, 187500.0, 187500.0, 187500.0, 187500.0, -87571.16199388051, 0.016, -0.004, 0.978, 192.0, 0.0, 0.0, 0.0, 0.0, 0.0, 0.0, 0.0, 0.0, 0.0, 1.7172382329507515E9, 0.0, 2024-06-01 03:37:12.950
81.0, 187500.0, -26232.72254857094, 187500.0, 187500.0, 187500.0, 187500.0, 187500.0, -87553.59352273865, 0.016, -0.004, 0.978, 192.0, 0.0, 0.0, 0.0, 0.0, 0.0, 0.0, 0.0, 0.0, 0.0, 1.7172382329507637E9, 0.0, 2024-06-01 03:37:12.950
82.0, 187500.0, -26239.696292840996, 187500.0, 187500.0, 187500.0, 187500.0, 187500.0, -87553.28059831627, 0.016, -0.004, 0.978, 192.0, 0.0, 0.0, 0.0, 0.0, 0.0, 0.0, 0.0, 0.0, 0.0, 1.7172382329507759E9, 0.0, 2024-06-01 03:37:12.950
83.0, 187500.0, -26241.23856320841, 187500.0, 187500.0, 187500.0, 187500.0, 187500.0, -87549.23493256986, 0.016, -0.004, 0.978, 192.0, 0.0, 0.0, 0.0, 0.0, 0.0, 0.0, 0.0, 0.0, 0.0, 1.717238232950788E9, 0.0, 2024-06-01 03:37:12.950
84.0, 187500.0, -26236.67880733953, 187500.0, 187500.0, 187500.0, 187500.0, 187500.0, -87547.2679790578, 0.016, -0.004, 0.978, 192.0, 0.0, 0.0, 0.0, 0.0, 0.0, 0.0, 0.0, 0.0, 0.0, 1.7172382329508E9, 0.0, 2024-06-01 03:37:12.950
85.0, 187500.0, -26237.774042817837, 187500.0, 187500.0, 187500.0, 187500.0, 187500.0, -87550.28546455926, 0.016, -0.004, 0.978, 192.0, 0.0, 0.0, 0.0, 0.0, 0.0, 0.0, 0.0, 0.0, 0.0, 1.717238232950812E9, 0.0, 2024-06-01 03:37:12.950
86.0, 187500.0, -26239.249257951888, 187500.0, 187500.0, 187500.0, 187500.0, 187500.0, -87548.65378721402, 0.016, -0.004, 0.978, 192.0, 0.0, 0.0, 0.0, 0.0, 0.0, 0.0, 0.0, 0.0, 0.0, 1.7172382329508243E9, 0.0, 2024-06-01 03:37:12.950
87.0, 187500.0, -26240.702121341485, 187500.0, 187500.0, 187500.0, 187500.0, 187500.0, -87550.55368549272, 0.016, -0.004, 0.98, 192.0, 0.0, 128.0, 255.0, 224.0, 30.0, 160.0, 0.0, 0.0, 0.0, 1.7172382329508379E9, 0.0, 2024-06-01 03:37:12.950
88.0, 187500.0, -26243.25022020939, 187500.0, 187500.0, 187500.0, 187500.0, 187500.0, -87565.70816823342, 0.016, -0.004, 0.98, 192.0, 0.0, 0.0, 0.0, 0.0, 0.0, 0.0, 0.0, 0.0, 0.0, 1.7172382329508505E9, 0.0, 2024-06-01 03:37:12.950
89.0, 187500.0, -26240.992694019402, 187500.0, 187500.0, 187500.0, 187500.0, 187500.0, -87559.58379025267, 0.016, -0.004, 0.98, 192.0, 0.0, 0.0, 0.0, 0.0, 0.0, 0.0, 0.0, 0.0, 0.0, 1.717238232950863E9, 0.0, 2024-06-01 03:37:12.950
90.0, 187500.0, -26251.945048802503, 187500.0, 187500.0, 187500.0, 187500.0, 187500.0, -87552.94532214943, 0.016, -0.004, 0.98, 192.0, 0.0, 0.0, 0.0, 0.0, 0.0, 0.0, 0.0, 0.0, 0.0, 1.7172382329508748E9, 0.0, 2024-06-01 03:37:12.950
91.0, 187500.0, -26263.97028731946, 187500.0, 187500.0, 187500.0, 187500.0, 187500.0, -87558.19798209643, 0.016, -0.004, 0.98, 192.0, 0.0, 0.0, 0.0, 0.0, 0.0, 0.0, 0.0, 0.0, 0.0, 1.7172382329508867E9, 0.0, 2024-06-01 03:37:12.950
92.0, 187500.0, -26256.929487816036, 187500.0, 187500.0, 187500.0, 187500.0, 187500.0, -87563.22712459888, 0.016, -0.004, 0.98, 192.0, 0.0, 0.0, 0.0, 0.0, 0.0, 0.0, 0.0, 0.0, 0.0, 1.7172382329509068E9, 0.0, 2024-06-01 03:37:12.950
93.0, 187500.0, -26265.57961292024, 187500.0, 187500.0, 187500.0, 187500.0, 187500.0, -87571.3184560917, 0.016, -0.004, 0.98, 192.0, 0.0, 0.0, 0.0, 0.0, 0.0, 0.0, 0.0, 0.0, 0.0, 1.717238232950919E9, 0.0, 2024-06-01 03:37:12.950
94.0, 187500.0, -26285.38325850764, 187500.0, 187500.0, 187500.0, 187500.0, 187500.0, -87574.53710729326, 0.016, -0.004, 0.98, 192.0, 0.0, 0.0, 0.0, 0.0, 0.0, 0.0, 0.0, 0.0, 0.0, 1.7172382329509313E9, 0.0, 2024-06-01 03:37:12.950
95.0, 187500.0, -26302.21412208249, 187500.0, 187500.0, 187500.0, 187500.0, 187500.0, -87578.8733457176, 0.016, -0.004, 0.98, 192.0, 0.0, 0.0, 0.0, 0.0, 0.0, 0.0, 0.0, 0.0, 0.0, 1.7172382329509432E9, 0.0, 2024-06-01 03:37:12.950
96.0, 187500.0, -26308.1596861076, 187500.0, 187500.0, 187500.0, 187500.0, 187500.0, -87608.71292456544, 0.016, -0.004, 0.98, 192.0, 0.0, 0.0, 0.0, 0.0, 0.0, 0.0, 0.0, 0.0, 0.0, 1.7172382329509552E9, 0.0, 2024-06-01 03:37:12.950
97.0, 187500.0, -26325.214067127, 187500.0, 187500.0, 187500.0, 187500.0, 187500.0, -87634.46213417794, 0.018000000000000002, -0.006, 0.982, 192.0, 0.0, 144.0, 255.0, 208.0, 30.0, 176.0, 0.0, 0.0, 0.0, 1.7172382329509673E9, 0.0, 2024-06-01 03:37:12.950
98.0, 187500.0, -26346.2694104039, 187500.0, 187500.0, 187500.0, 187500.0, 187500.0, -87643.7381081269, 0.018000000000000002, -0.006, 0.982, 192.0, 0.0, 0.0, 0.0, 0.0, 0.0, 0.0, 0.0, 0.0, 0.0, 1.71723823295098E9, 0.0, 2024-06-01 03:37:12.950
99.0, 187500.0, -26372.420951416607, 187500.0, 187500.0, 187500.0, 187500.0, 187500.0, -87655.24925652138, 0.018000000000000002, -0.006, 0.982, 192.0, 0.0, 0.0, 0.0, 0.0, 0.0, 0.0, 0.0, 0.0, 0.0, 1.717238232950992E9, 0.0, 2024-06-01 03:37:12.950
100.0, 187500.0, -26391.308175481343, 187500.0, 187500.0, 187500.0, 187500.0, 187500.0, -87681.13257660062, 0.018000000000000002, -0.006, 0.982, 192.0, 0.0, 0.0, 0.0, 0.0, 0.0, 0.0, 0.0, 0.0, 0.0, 1.7172382329510045E9, 0.0, 2024-06-01 03:37:12.951
101.0, 187500.0, -26388.000117301955, 187500.0, 187500.0, 187500.0, 187500.0, 187500.0, -87686.6534574811, 0.018000000000000002, -0.006, 0.982, 192.0, 0.0, 0.0, 0.0, 0.0, 0.0, 0.0, 0.0, 0.0, 0.0, 1.717238232951017E9, 0.0, 2024-06-01 03:37:12.951
102.0, 187500.0, -26389.74355336947, 187500.0, 187500.0, 187500.0, 187500.0, 187500.0, -87684.10535861319, 0.018000000000000002, -0.006, 0.982, 192.0, 0.0, 0.0, 0.0, 0.0, 0.0, 0.0, 0.0, 0.0, 0.0, 1.7172382329510288E9, 0.0, 2024-06-01 03:37:12.951
103.0, 187500.0, -26409.770716401425, 187500.0, 187500.0, 187500.0, 187500.0, 187500.0, -87687.99456214841, 0.018000000000000002, -0.006, 0.982, 192.0, 0.0, 0.0, 0.0, 0.0, 0.0, 0.0, 0.0, 0.0, 0.0, 1.717238232951041E9, 0.0, 2024-06-01 03:37:12.951
104.0, 187500.0, -26426.713338698548, 187500.0, 187500.0, 187500.0, 187500.0, 187500.0, -87697.60581226418, 0.018000000000000002, -0.006, 0.982, 192.0, 0.0, 0.0, 0.0, 0.0, 0.0, 0.0, 0.0, 0.0, 0.0, 1.717238232951053E9, 0.0, 2024-06-01 03:37:12.951
105.0, 187500.0, -26419.583132217307, 187500.0, 187500.0, 187500.0, 187500.0, 187500.0, -87715.39780085061, 0.018000000000000002, -0.006, 0.982, 192.0, 0.0, 0.0, 0.0, 0.0, 0.0, 0.0, 0.0, 0.0, 0.0, 1.717238232951065E9, 0.0, 2024-06-01 03:37:12.951
106.0, 187500.0, -26416.65505369366, 187500.0, 187500.0, 187500.0, 187500.0, 187500.0, -87709.0499054253, 0.018000000000000002, -0.006, 0.982, 192.0, 0.0, 0.0, 0.0, 0.0, 0.0, 0.0, 0.0, 0.0, 0.0, 1.7172382329510772E9, 0.0, 2024-06-01 03:37:12.951
107.0, 187500.0, -26430.2896178114, 187500.0, 187500.0, 187500.0, 187500.0, 187500.0, -87702.41143732208, 0.022, 0.002, 0.986, 192.0, 0.0, 176.0, 0.0, 16.0, 30.0, 208.0, 0.0, 0.0, 0.0, 1.7172382329510975E9, 0.0, 2024-06-01 03:37:12.951
108.0, 187500.0, -26442.56072551736, 187500.0, 187500.0, 187500.0, 187500.0, 187500.0, -87721.03044045335, 0.022, 0.002, 0.986, 192.0, 0.0, 0.0, 0.0, 0.0, 0.0, 0.0, 0.0, 0.0, 0.0, 1.7172382329511197E9, 0.0, 2024-06-01 03:37:12.951
109.0, 187500.0, -26428.85910616626, 187500.0, 187500.0, 187500.0, 187500.0, 187500.0, -87721.94686197602, 0.022, 0.002, 0.986, 192.0, 0.0, 0.0, 0.0, 0.0, 0.0, 0.0, 0.0, 0.0, 0.0, 1.717238232951132E9, 0.0, 2024-06-01 03:37:12.951
110.0, 187500.0, -26425.57339973133, 187500.0, 187500.0, 187500.0, 187500.0, 187500.0, -87717.02947819585, 0.022, 0.002, 0.986, 192.0, 0.0, 0.0, 0.0, 0.0, 0.0, 0.0, 0.0, 0.0, 0.0, 1.7172382329511445E9, 0.0, 2024-06-01 03:37:12.951
111.0, 187500.0, -26431.630722478716, 187500.0, 187500.0, 187500.0, 187500.0, 187500.0, -87712.2015013935, 0.022, 0.002, 0.986, 192.0, 0.0, 0.0, 0.0, 0.0, 0.0, 0.0, 0.0, 0.0, 0.0, 1.7172382329511564E9, 0.0, 2024-06-01 03:37:12.951
112.0, 187500.0, -26429.976693389024, 187500.0, 187500.0, 187500.0, 187500.0, 187500.0, -87702.65730651109, 0.022, 0.002, 0.986, 192.0, 0.0, 0.0, 0.0, 0.0, 0.0, 0.0, 0.0, 0.0, 0.0, 1.7172382329511685E9, 0.0, 2024-06-01 03:37:12.951
113.0, 187500.0, -26420.81247816235, 187500.0, 187500.0, 187500.0, 187500.0, 187500.0, -87701.74088498842, 0.022, 0.002, 0.986, 192.0, 0.0, 0.0, 0.0, 0.0, 0.0, 0.0, 0.0, 0.0, 0.0, 1.7172382329511807E9, 0.0, 2024-06-01 03:37:12.951
114.0, 187500.0, -26414.956321115056, 187500.0, 187500.0, 187500.0, 187500.0, 187500.0, -87704.87012921217, 0.022, 0.002, 0.986, 192.0, 0.0, 0.0, 0.0, 0.0, 0.0, 0.0, 0.0, 0.0, 0.0, 1.717238232951193E9, 0.0, 2024-06-01 03:37:12.951
115.0, 187500.0, -26420.65601595116, 187500.0, 187500.0, 187500.0, 187500.0, 187500.0, -87698.09755064221, 0.022, 0.002, 0.986, 192.0, 0.0, 0.0, 0.0, 0.0, 0.0, 0.0, 0.0, 0.0, 0.0, 1.7172382329512053E9, 0.0, 2024-06-01 03:37:12.951
116.0, 187500.0, -26421.348920029275, 187500.0, 187500.0, 187500.0, 187500.0, 187500.0, -87689.31331507127, 0.022, 0.002, 0.986, 192.0, 0.0, 0.0, 0.0, 0.0, 0.0, 0.0, 0.0, 0.0, 0.0, 1.7172382329512174E9, 0.0, 2024-06-01 03:37:12.951
117.0, 187500.0, -26410.687137924095, 187500.0, 187500.0, 187500.0, 187500.0, 187500.0, -87675.72345444244, 0.02, 0.004, 0.984, 192.0, 0.0, 160.0, 0.0, 32.0, 30.0, 192.0, 0.0, 0.0, 0.0, 1.7172382329512296E9, 0.0, 2024-06-01 03:37:12.951
118.0, 187500.0, -26394.54917842736, 187500.0, 187500.0, 187500.0, 187500.0, 187500.0, -87683.79243419081, 0.02, 0.004, 0.984, 192.0, 0.0, 0.0, 0.0, 0.0, 0.0, 0.0, 0.0, 0.0, 0.0, 1.7172382329512424E9, 0.0, 2024-06-01 03:37:12.951
119.0, 187500.0, -26384.356782955743, 187500.0, 187500.0, 187500.0, 187500.0, 187500.0, -87676.25989630936, 0.02, 0.004, 0.984, 192.0, 0.0, 0.0, 0.0, 0.0, 0.0, 0.0, 0.0, 0.0, 0.0, 1.7172382329512544E9, 0.0, 2024-06-01 03:37:12.951
120.0, 187500.0, -26393.856274349248, 187500.0, 187500.0, 187500.0, 187500.0, 187500.0, -87676.81868992075, 0.02, 0.004, 0.984, 192.0, 0.0, 0.0, 0.0, 0.0, 0.0, 0.0, 0.0, 0.0, 0.0, 1.7172382329512663E9, 0.0, 2024-06-01 03:37:12.951
121.0, 187500.0, -26394.9291580831, 187500.0, 187500.0, 187500.0, 187500.0, 187500.0, -87681.57961148974, 0.02, 0.004, 0.984, 192.0, 0.0, 0.0, 0.0, 0.0, 0.0, 0.0, 0.0, 0.0, 0.0, 1.7172382334302416E9, 0.0, 2024-06-01 03:37:13.430
122.0, 187500.0, -26376.868948563213, 187500.0, 187500.0, 187500.0, 187500.0, 187500.0, -87665.46400373746, 0.02, 0.004, 0.984, 192.0, 0.0, 0.0, 0.0, 0.0, 0.0, 0.0, 0.0, 0.0, 0.0, 1.7172382334303713E9, 0.0, 2024-06-01 03:37:13.430
123.0, 187500.0, -26368.107064736734, 187500.0, 187500.0, 187500.0, 187500.0, 187500.0, -87652.65645416456, 0.02, 0.004, 0.984, 192.0, 0.0, 0.0, 0.0, 0.0, 0.0, 0.0, 0.0, 0.0, 0.0, 1.7172382334304044E9, 0.0, 2024-06-01 03:37:13.430
124.0, 187500.0, -26366.050704246845, 187500.0, 187500.0, 187500.0, 187500.0, 187500.0, -87644.00632906036, 0.02, 0.004, 0.984, 192.0, 0.0, 0.0, 0.0, 0.0, 0.0, 0.0, 0.0, 0.0, 0.0, 1.7172382334304335E9, 0.0, 2024-06-01 03:37:13.430
125.0, 187500.0, -26354.248983174442, 187500.0, 187500.0, 187500.0, 187500.0, 187500.0, -87642.01702380384, 0.02, 0.004, 0.984, 192.0, 0.0, 0.0, 0.0, 0.0, 0.0, 0.0, 0.0, 0.0, 0.0, 1.7172382334304633E9, 0.0, 2024-06-01 03:37:13.430
126.0, 187500.0, -26345.84472725925, 187500.0, 187500.0, 187500.0, 187500.0, 187500.0, -87645.14626802759, 0.02, 0.004, 0.984, 192.0, 0.0, 0.0, 0.0, 0.0, 0.0, 0.0, 0.0, 0.0, 0.0, 1.7172382334304883E9, 0.0, 2024-06-01 03:37:13.430
127.0, 187500.0, -26342.670779546595, 187500.0, 187500.0, 187500.0, 187500.0, 187500.0, -87636.33968071219, 0.018000000000000002, -0.002, 0.986, 192.0, 0.0, 144.0, 255.0, 240.0, 30.0, 208.0, 0.0, 0.0, 0.0, 1.717238233430504E9, 0.0, 2024-06-01 03:37:13.430
128.0, 187500.0, -26342.179041168576, 187500.0, 187500.0, 187500.0, 187500.0, 187500.0, -87624.87323580662, 0.018000000000000002, -0.002, 0.986, 192.0, 0.0, 0.0, 0.0, 0.0, 0.0, 0.0, 0.0, 0.0, 0.0, 1.7172382334305212E9, 0.0, 2024-06-01 03:37:13.430
129.0, 187500.0, -26339.988570211957, 187500.0, 187500.0, 187500.0, 187500.0, 187500.0, -87620.44759040447, 0.018000000000000002, -0.002, 0.986, 192.0, 0.0, 0.0, 0.0, 0.0, 0.0, 0.0, 0.0, 0.0, 0.0, 1.7172382334305377E9, 0.0, 2024-06-01 03:37:13.430
130.0, 187500.0, -26331.897238719135, 187500.0, 187500.0, 187500.0, 187500.0, 187500.0, -87614.16675021252, 0.018000000000000002, -0.002, 0.986, 192.0, 0.0, 0.0, 0.0, 0.0, 0.0, 0.0, 0.0, 0.0, 0.0, 1.7172382334305525E9, 0.0, 2024-06-01 03:37:13.430
131.0, 187500.0, -26324.54351479334, 187500.0, 187500.0, 187500.0, 187500.0, 187500.0, -87613.33973566769, 0.018000000000000002, -0.002, 0.986, 192.0, 0.0, 0.0, 0.0, 0.0, 0.0, 0.0, 0.0, 0.0, 0.0, 1.7172382334305675E9, 0.0, 2024-06-01 03:37:13.430
132.0, 187500.0, -26321.324863591777, 187500.0, 187500.0, 187500.0, 187500.0, 187500.0, -87605.74014255288, 0.018000000000000002, -0.002, 0.986, 192.0, 0.0, 0.0, 0.0, 0.0, 0.0, 0.0, 0.0, 0.0, 0.0, 1.7172382334305832E9, 0.0, 2024-06-01 03:37:13.430
133.0, 187500.0, -26318.553247279317, 187500.0, 187500.0, 187500.0, 187500.0, 187500.0, -87606.4777501199, 0.018000000000000002, -0.002, 0.986, 192.0, 0.0, 0.0, 0.0, 0.0, 0.0, 0.0, 0.0, 0.0, 0.0, 1.7172382334305985E9, 0.0, 2024-06-01 03:37:13.430
134.0, 187500.0, -26297.29673830232, 187500.0, 187500.0, 187500.0, 187500.0, 187500.0, -87604.15316869655, 0.018000000000000002, -0.002, 0.986, 192.0, 0.0, 0.0, 0.0, 0.0, 0.0, 0.0, 0.0, 0.0, 0.0, 1.7172382334306223E9, 0.0, 2024-06-01 03:37:13.430
135.0, 187500.0, -26296.514427246384, 187500.0, 187500.0, 187500.0, 187500.0, 187500.0, -87603.50496810734, 0.018000000000000002, -0.002, 0.986, 192.0, 0.0, 0.0, 0.0, 0.0, 0.0, 0.0, 0.0, 0.0, 0.0, 1.7172382334306474E9, 0.0, 2024-06-01 03:37:13.430
136.0, 187500.0, -26301.320052304276, 187500.0, 187500.0, 187500.0, 187500.0, 187500.0, -87593.13375868008, 0.018000000000000002, -0.002, 0.986, 192.0, 0.0, 0.0, 0.0, 0.0, 0.0, 0.0, 0.0, 0.0, 0.0, 1.717238233430663E9, 0.0, 2024-06-01 03:37:13.430
137.0, 187500.0, -26307.98087215196, 187500.0, 187500.0, 187500.0, 187500.0, 187500.0, -87601.8285872732, 0.016, -0.004, 0.982, 192.0, 0.0, 128.0, 255.0, 224.0, 30.0, 176.0, 0.0, 0.0, 0.0, 1.7172382334306924E9, 0.0, 2024-06-01 03:37:13.430
138.0, 187500.0, -26295.62035746817, 187500.0, 187500.0, 187500.0, 187500.0, 187500.0, -87597.35823838213, 0.016, -0.004, 0.982, 192.0, 0.0, 0.0, 0.0, 0.0, 0.0, 0.0, 0.0, 0.0, 0.0, 1.717238233430709E9, 0.0, 2024-06-01 03:37:13.430
139.0, 187500.0, -26288.333688775743, 187500.0, 187500.0, 187500.0, 187500.0, 187500.0, -87583.29899111975, 0.016, -0.004, 0.982, 192.0, 0.0, 0.0, 0.0, 0.0, 0.0, 0.0, 0.0, 0.0, 0.0, 1.7172382334307241E9, 0.0, 2024-06-01 03:37:13.430
140.0, 187500.0, -26293.429886511552, 187500.0, 187500.0, 187500.0, 187500.0, 187500.0, -87576.63817127206, 0.016, -0.004, 0.982, 192.0, 0.0, 0.0, 0.0, 0.0, 0.0, 0.0, 0.0, 0.0, 0.0, 1.71723823343074E9, 0.0, 2024-06-01 03:37:13.430
141.0, 187500.0, -26296.849703413216, 187500.0, 187500.0, 187500.0, 187500.0, 187500.0, -87577.8228137282, 0.016, -0.004, 0.982, 192.0, 0.0, 0.0, 0.0, 0.0, 0.0, 0.0, 0.0, 0.0, 0.0, 1.7172382334307551E9, 0.0, 2024-06-01 03:37:13.430
142.0, 187500.0, -26285.78558990784, 187500.0, 187500.0, 187500.0, 187500.0, 187500.0, -87579.43213932899, 0.016, -0.004, 0.982, 192.0, 0.0, 0.0, 0.0, 0.0, 0.0, 0.0, 0.0, 0.0, 0.0, 1.7172382334307704E9, 0.0, 2024-06-01 03:37:13.430
143.0, 187500.0, -26272.64276416812, 187500.0, 187500.0, 187500.0, 187500.0, 187500.0, -87577.46518581691, 0.016, -0.004, 0.982, 192.0, 0.0, 0.0, 0.0, 0.0, 0.0, 0.0, 0.0, 0.0, 0.0, 1.7172382334307857E9, 0.0, 2024-06-01 03:37:13.430
144.0, 187500.0, -26270.698162400506, 187500.0, 187500.0, 187500.0, 187500.0, 187500.0, -87564.05413914373, 0.016, -0.004, 0.982, 192.0, 0.0, 0.0, 0.0, 0.0, 0.0, 0.0, 0.0, 0.0, 0.0, 1.7172382334308007E9, 0.0, 2024-06-01 03:37:13.430
145.0, 187500.0, -26276.979002592445, 187500.0, 187500.0, 187500.0, 187500.0, 187500.0, -87556.11926986209, 0.016, -0.004, 0.982, 192.0, 0.0, 0.0, 0.0, 0.0, 0.0, 0.0, 0.0, 0.0, 0.0, 1.7172382334308157E9, 0.0, 2024-06-01 03:37:13.430
146.0, 187500.0, -26274.85558686919, 187500.0, 187500.0, 187500.0, 187500.0, 187500.0, -87572.01136016981, 0.016, -0.004, 0.982, 192.0, 0.0, 0.0, 0.0, 0.0, 0.0, 0.0, 0.0, 0.0, 0.0, 1.7172382334308307E9, 0.0, 2024-06-01 03:37:13.430
147.0, 187500.0, -26272.732171145937, 187500.0, 187500.0, 187500.0, 187500.0, 187500.0, -87572.59250552565, 0.016, -0.004, 0.98, 192.0, 0.0, 128.0, 255.0, 224.0, 30.0, 160.0, 0.0, 0.0, 0.0, 1.7172382334308457E9, 0.0, 2024-06-01 03:37:13.430
148.0, 187500.0, -26276.3531537477, 187500.0, 187500.0, 187500.0, 187500.0, 187500.0, -87565.0152641553, 0.016, -0.004, 0.98, 192.0, 0.0, 0.0, 0.0, 0.0, 0.0, 0.0, 0.0, 0.0, 0.0, 1.7172382334308617E9, 0.0, 2024-06-01 03:37:13.430
149.0, 187500.0, -26291.261767299387, 187500.0, 187500.0, 187500.0, 187500.0, 187500.0, -87574.85003171564, 0.016, -0.004, 0.98, 192.0, 0.0, 0.0, 0.0, 0.0, 0.0, 0.0, 0.0, 0.0, 0.0, 1.7172382334308777E9, 0.0, 2024-06-01 03:37:13.430
150.0, 187500.0, -26289.585386465238, 187500.0, 187500.0, 187500.0, 187500.0, 187500.0, -87585.26594463181, 0.016, -0.004, 0.98, 192.0, 0.0, 0.0, 0.0, 0.0, 0.0, 0.0, 0.0, 0.0, 0.0, 1.7172382334308927E9, 0.0, 2024-06-01 03:37:13.430
151.0, 187500.0, -26281.561110205785, 187500.0, 187500.0, 187500.0, 187500.0, 187500.0, -87586.89762197706, 0.016, -0.004, 0.98, 192.0, 0.0, 0.0, 0.0, 0.0, 0.0, 0.0, 0.0, 0.0, 0.0, 1.7172382334309075E9, 0.0, 2024-06-01 03:37:13.430
152.0, 187500.0, -26272.598060679207, 187500.0, 187500.0, 187500.0, 187500.0, 187500.0, -87570.55849678023, 0.016, -0.004, 0.98, 192.0, 0.0, 0.0, 0.0, 0.0, 0.0, 0.0, 0.0, 0.0, 0.0, 1.7172382334309323E9, 0.0, 2024-06-01 03:37:13.430
153.0, 187500.0, -26281.49405497242, 187500.0, 187500.0, 187500.0, 187500.0, 187500.0, -87559.13675536356, 0.016, -0.004, 0.98, 192.0, 0.0, 0.0, 0.0, 0.0, 0.0, 0.0, 0.0, 0.0, 0.0, 1.7172382334309483E9, 0.0, 2024-06-01 03:37:13.430
154.0, 187500.0, -26279.482397971442, 187500.0, 187500.0, 187500.0, 187500.0, 187500.0, -87558.55561000772, 0.016, -0.004, 0.98, 192.0, 0.0, 0.0, 0.0, 0.0, 0.0, 0.0, 0.0, 0.0, 0.0, 1.7172382334309635E9, 0.0, 2024-06-01 03:37:13.430
155.0, 187500.0, -26264.842005353214, 187500.0, 187500.0, 187500.0, 187500.0, 187500.0, -87567.00456941183, 0.016, -0.004, 0.98, 192.0, 0.0, 0.0, 0.0, 0.0, 0.0, 0.0, 0.0, 0.0, 0.0, 1.7172382334309785E9, 0.0, 2024-06-01 03:37:13.430
156.0, 187500.0, -26255.275458726344, 187500.0, 187500.0, 187500.0, 187500.0, 187500.0, -87553.77233669428, 0.016, -0.004, 0.98, 192.0, 0.0, 0.0, 0.0, 0.0, 0.0, 0.0, 0.0, 0.0, 0.0, 1.7172382334309938E9, 0.0, 2024-06-01 03:37:13.430
157.0, 187500.0, -26266.786607120826, 187500.0, 187500.0, 187500.0, 187500.0, 187500.0, -87540.18247606546, 0.016, -0.008, 0.978, 192.0, 0.0, 128.0, 255.0, 192.0, 30.0, 144.0, 0.0, 0.0, 0.0, 1.7172382334310088E9, 0.0, 2024-06-01 03:37:13.431
158.0, 187500.0, -26269.312354244277, 187500.0, 187500.0, 187500.0, 187500.0, 187500.0, -87547.22327556887, 0.016, -0.008, 0.978, 192.0, 0.0, 0.0, 0.0, 0.0, 0.0, 0.0, 0.0, 0.0, 0.0, 1.7172382334310243E9, 0.0, 2024-06-01 03:37:13.431
159.0, 187500.0, -26256.19188024901, 187500.0, 187500.0, 187500.0, 187500.0, 187500.0, -87560.47786003088, 0.016, -0.008, 0.978, 192.0, 0.0, 0.0, 0.0, 0.0, 0.0, 0.0, 0.0, 0.0, 0.0, 1.7172382334310396E9, 0.0, 2024-06-01 03:37:13.431
160.0, 187500.0, -26252.369731947154, 187500.0, 187500.0, 187500.0, 187500.0, 187500.0, -87565.97638916688, 0.016, -0.008, 0.978, 192.0, 0.0, 0.0, 0.0, 0.0, 0.0, 0.0, 0.0, 0.0, 0.0, 1.7172382334310548E9, 0.0, 2024-06-01 03:37:13.431
161.0, 187500.0, -26251.76623484686, 187500.0, 187500.0, 187500.0, 187500.0, 187500.0, -87543.5128859893, 0.016, -0.008, 0.978, 192.0, 0.0, 0.0, 0.0, 0.0, 0.0, 0.0, 0.0, 0.0, 0.0, 1.71723823343107E9, 0.0, 2024-06-01 03:37:13.431
162.0, 187500.0, -26261.53394717383, 187500.0, 187500.0, 187500.0, 187500.0, 187500.0, -87552.65474947152, 0.016, -0.008, 0.978, 192.0, 0.0, 0.0, 0.0, 0.0, 0.0, 0.0, 0.0, 0.0, 0.0, 1.717238233431085E9, 0.0, 2024-06-01 03:37:13.431
163.0, 187500.0, -26261.042208795814, 187500.0, 187500.0, 187500.0, 187500.0, 187500.0, -87571.20669736943, 0.016, -0.008, 0.978, 192.0, 0.0, 0.0, 0.0, 0.0, 0.0, 0.0, 0.0, 0.0, 0.0, 1.7172382334311E9, 0.0, 2024-06-01 03:37:13.431
164.0, 187500.0, -26245.10541499918, 187500.0, 187500.0, 187500.0, 187500.0, 187500.0, -87554.04055762776, 0.016, -0.008, 0.978, 192.0, 0.0, 0.0, 0.0, 0.0, 0.0, 0.0, 0.0, 0.0, 0.0, 1.7172382334311154E9, 0.0, 2024-06-01 03:37:13.431
165.0, 187500.0, -26247.787624333814, 187500.0, 187500.0, 187500.0, 187500.0, 187500.0, -87527.95607184841, 0.016, -0.008, 0.978, 192.0, 0.0, 0.0, 0.0, 0.0, 0.0, 0.0, 0.0, 0.0, 0.0, 1.7172382334311316E9, 0.0, 2024-06-01 03:37:13.431
166.0, 187500.0, -26268.686505399528, 187500.0, 187500.0, 187500.0, 187500.0, 187500.0, -87536.1591620635, 0.016, -0.008, 0.978, 192.0, 0.0, 0.0, 0.0, 0.0, 0.0, 0.0, 0.0, 0.0, 0.0, 1.7172382334311469E9, 0.0, 2024-06-01 03:37:13.431
167.0, 187500.0, -26266.697200143004, 187500.0, 187500.0, 187500.0, 187500.0, 187500.0, -87547.5138482468, 0.02, -0.004, 0.984, 192.0, 0.0, 160.0, 255.0, 224.0, 30.0, 192.0, 0.0, 0.0, 0.0, 1.7172382334311705E9, 0.0, 2024-06-01 03:37:13.431
168.0, 187500.0, -26245.46304291046, 187500.0, 187500.0, 187500.0, 187500.0, 187500.0, -87543.66934820049, 0.02, -0.004, 0.984, 192.0, 0.0, 0.0, 0.0, 0.0, 0.0, 0.0, 0.0, 0.0, 0.0, 1.7172382334311864E9, 0.0, 2024-06-01 03:37:13.431
169.0, 187500.0, -26243.496089398395, 187500.0, 187500.0, 187500.0, 187500.0, 187500.0, -87538.68490918695, 0.02, -0.004, 0.984, 192.0, 0.0, 0.0, 0.0, 0.0, 0.0, 0.0, 0.0, 0.0, 0.0, 1.7172382334312012E9, 0.0, 2024-06-01 03:37:13.431
170.0, 187500.0, -26257.62239189415, 187500.0, 187500.0, 187500.0, 187500.0, 187500.0, -87536.91912137499, 0.02, -0.004, 0.984, 192.0, 0.0, 0.0, 0.0, 0.0, 0.0, 0.0, 0.0, 0.0, 0.0, 1.7172382334312131E9, 0.0, 2024-06-01 03:37:13.431
171.0, 187500.0, -26251.922697058046, 187500.0, 187500.0, 187500.0, 187500.0, 187500.0, -87545.09985984562, 0.02, -0.004, 0.984, 192.0, 0.0, 0.0, 0.0, 0.0, 0.0, 0.0, 0.0, 0.0, 0.0, 1.7172382334312253E9, 0.0, 2024-06-01 03:37:13.431
172.0, 187500.0, -26242.043226008802, 187500.0, 187500.0, 187500.0, 187500.0, 187500.0, -87544.25049355632, 0.02, -0.004, 0.984, 192.0, 0.0, 0.0, 0.0, 0.0, 0.0, 0.0, 0.0, 0.0, 0.0, 1.7172382334312375E9, 0.0, 2024-06-01 03:37:13.431
173.0, 187500.0, -26243.205516720478, 187500.0, 187500.0, 187500.0, 187500.0, 187500.0, -87538.61785395359, 0.02, -0.004, 0.984, 192.0, 0.0, 0.0, 0.0, 0.0, 0.0, 0.0, 0.0, 0.0, 0.0, 1.7172382334312491E9, 0.0, 2024-06-01 03:37:13.431
174.0, 187500.0, -26246.446519666497, 187500.0, 187500.0, 187500.0, 187500.0, 187500.0, -87528.02312708177, 0.02, -0.004, 0.984, 192.0, 0.0, 0.0, 0.0, 0.0, 0.0, 0.0, 0.0, 0.0, 0.0, 1.7172382334312613E9, 0.0, 2024-06-01 03:37:13.431
175.0, 187500.0, -26252.548545902795, 187500.0, 187500.0, 187500.0, 187500.0, 187500.0, -87531.82292363918, 0.02, -0.004, 0.984, 192.0, 0.0, 0.0, 0.0, 0.0, 0.0, 0.0, 0.0, 0.0, 0.0, 1.7172382334312732E9, 0.0, 2024-06-01 03:37:13.431
176.0, 187500.0, -26245.843022566205, 187500.0, 187500.0, 187500.0, 187500.0, 187500.0, -87532.158199806, 0.02, -0.006, 0.986, 192.0, 0.0, 160.0, 255.0, 208.0, 30.0, 208.0, 0.0, 0.0, 0.0, 1.7172382334312851E9, 0.0, 2024-06-01 03:37:13.431
177.0, 187500.0, -26247.2958859558, 187500.0, 187500.0, 187500.0, 187500.0, 187500.0, -87533.87928412907, 0.02, -0.006, 0.986, 192.0, 0.0, 0.0, 0.0, 0.0, 0.0, 0.0, 0.0, 0.0, 0.0, 1.7172382334312978E9, 0.0, 2024-06-01 03:37:13.431
178.0, 187500.0, -26251.922697058046, 187500.0, 187500.0, 187500.0, 187500.0, 187500.0, -87531.7111649169, 0.02, -0.006, 0.986, 192.0, 0.0, 0.0, 0.0, 0.0, 0.0, 0.0, 0.0, 0.0, 0.0, 1.7172382334313097E9, 0.0, 2024-06-01 03:37:13.431
179.0, 187500.0, -26249.3969499346, 187500.0, 187500.0, 187500.0, 187500.0, 187500.0, -87541.70239468841, 0.02, -0.006, 0.986, 192.0, 0.0, 0.0, 0.0, 0.0, 0.0, 0.0, 0.0, 0.0, 0.0, 1.717238233431322E9, 0.0, 2024-06-01 03:37:13.431
180.0, 187500.0, -26242.80318532028, 187500.0, 187500.0, 187500.0, 187500.0, 187500.0, -87545.07750810117, 0.02, -0.006, 0.986, 192.0, 0.0, 0.0, 0.0, 0.0, 0.0, 0.0, 0.0, 0.0, 0.0, 1.717238233431334E9, 0.0, 2024-06-01 03:37:13.431
181.0, 187500.0, -26241.596191119694, 187500.0, 187500.0, 187500.0, 187500.0, 187500.0, -87532.38171725055, 0.02, -0.006, 0.986, 192.0, 0.0, 0.0, 0.0, 0.0, 0.0, 0.0, 0.0, 0.0, 0.0, 1.717238233431346E9, 0.0, 2024-06-01 03:37:13.431
182.0, 187500.0, -26259.566993661763, 187500.0, 187500.0, 187500.0, 187500.0, 187500.0, -87534.43807774044, 0.02, -0.006, 0.986, 192.0, 0.0, 0.0, 0.0, 0.0, 0.0, 0.0, 0.0, 0.0, 0.0, 1.717238233431358E9, 0.0, 2024-06-01 03:37:13.431
183.0, 187500.0, -26250.80510983528, 187500.0, 187500.0, 187500.0, 187500.0, 187500.0, -87530.68298467195, 0.02, -0.006, 0.986, 192.0, 0.0, 0.0, 0.0, 0.0, 0.0, 0.0, 0.0, 0.0, 0.0, 1.717238233431378E9, 0.0, 2024-06-01 03:37:13.431
184.0, 187500.0, -26240.52330738584, 187500.0, 187500.0, 187500.0, 187500.0, 187500.0, -87533.70047017343, 0.02, -0.006, 0.986, 192.0, 0.0, 0.0, 0.0, 0.0, 0.0, 0.0, 0.0, 0.0, 0.0, 1.7172382334313898E9, 0.0, 2024-06-01 03:37:13.431
185.0, 187500.0, -26242.266743453354, 187500.0, 187500.0, 187500.0, 187500.0, 187500.0, -87537.74613591984, 0.02, -0.006, 0.986, 192.0, 0.0, 0.0, 0.0, 0.0, 0.0, 0.0, 0.0, 0.0, 0.0, 1.717238233431402E9, 0.0, 2024-06-01 03:37:13.431
186.0, 187500.0, -26249.1957842345, 187500.0, 187500.0, 187500.0, 187500.0, 187500.0, -87529.23012128237, 0.02, 0.002, 0.982, 192.0, 0.0, 160.0, 0.0, 16.0, 30.0, 176.0, 0.0, 0.0, 0.0, 1.7172382334314141E9, 0.0, 2024-06-01 03:37:13.431
187.0, 187500.0, -26258.985848305925, 187500.0, 187500.0, 187500.0, 187500.0, 187500.0, -87538.52844697576, 0.02, 0.002, 0.982, 192.0, 0.0, 0.0, 0.0, 0.0, 0.0, 0.0, 0.0, 0.0, 0.0, 1.7172382334314268E9, 0.0, 2024-06-01 03:37:13.431
188.0, 187500.0, -26253.934354059023, 187500.0, 187500.0, 187500.0, 187500.0, 187500.0, -87545.12221159009, 0.02, 0.002, 0.982, 192.0, 0.0, 0.0, 0.0, 0.0, 0.0, 0.0, 0.0, 0.0, 0.0, 1.717238233431439E9, 0.0, 2024-06-01 03:37:13.431
189.0, 187500.0, -26247.00531327788, 187500.0, 187500.0, 187500.0, 187500.0, 187500.0, -87543.28936854475, 0.02, 0.002, 0.982, 192.0, 0.0, 0.0, 0.0, 0.0, 0.0, 0.0, 0.0, 0.0, 0.0, 1.717238233431451E9, 0.0, 2024-06-01 03:37:13.431
190.0, 187500.0, -26247.452348166986, 187500.0, 187500.0, 187500.0, 187500.0, 187500.0, -87532.04644108373, 0.02, 0.002, 0.982, 192.0, 0.0, 0.0, 0.0, 0.0, 0.0, 0.0, 0.0, 0.0, 0.0, 1.7172382334314632E9, 0.0, 2024-06-01 03:37:13.431
191.0, 187500.0, -26253.777891847836, 187500.0, 187500.0, 187500.0, 187500.0, 187500.0, -87540.69656618794, 0.02, 0.002, 0.982, 192.0, 0.0, 0.0, 0.0, 0.0, 0.0, 0.0, 0.0, 0.0, 0.0, 1.7172382334314752E9, 0.0, 2024-06-01 03:37:13.431
192.0, 187500.0, -26252.23562148042, 187500.0, 187500.0, 187500.0, 187500.0, 187500.0, -87554.82286868368, 0.02, 0.002, 0.982, 192.0, 0.0, 0.0, 0.0, 0.0, 0.0, 0.0, 0.0, 0.0, 0.0, 1.717238233431487E9, 0.0, 2024-06-01 03:37:13.431
193.0, 187500.0, -26234.555391616275, 187500.0, 187500.0, 187500.0, 187500.0, 187500.0, -87545.25632205681, 0.02, 0.002, 0.982, 192.0, 0.0, 0.0, 0.0, 0.0, 0.0, 0.0, 0.0, 0.0, 0.0, 1.717238233431499E9, 0.0, 2024-06-01 03:37:13.431
194.0, 187500.0, -26234.75655731637, 187500.0, 187500.0, 187500.0, 187500.0, 187500.0, -87535.13098181855, 0.02, 0.002, 0.982, 192.0, 0.0, 0.0, 0.0, 0.0, 0.0, 0.0, 0.0, 0.0, 0.0, 1.7172382334315119E9, 0.0, 2024-06-01 03:37:13.431
195.0, 187500.0, -26251.162737746567, 187500.0, 187500.0, 187500.0, 187500.0, 187500.0, -87530.63828118304, 0.02, 0.002, 0.982, 192.0, 0.0, 0.0, 0.0, 0.0, 0.0, 0.0, 0.0, 0.0, 0.0, 1.7172382334315236E9, 0.0, 2024-06-01 03:37:13.431
196.0, 187500.0, -26248.48052841193, 187500.0, 187500.0, 187500.0, 187500.0, 187500.0, -87530.81709513869, 0.02, -0.002, 0.984, 192.0, 0.0, 160.0, 255.0, 240.0, 30.0, 192.0, 0.0, 0.0, 0.0, 1.7172382334315362E9, 0.0, 2024-06-01 03:37:13.431
197.0, 187500.0, -26240.76917657485, 187500.0, 187500.0, 187500.0, 187500.0, 187500.0, -87539.7577929208, 0.02, -0.002, 0.984, 192.0, 0.0, 0.0, 0.0, 0.0, 0.0, 0.0, 0.0, 0.0, 0.0, 1.7172382334315488E9, 0.0, 2024-06-01 03:37:13.431
198.0, 187500.0, -26233.81778404925, 187500.0, 187500.0, 187500.0, 187500.0, 187500.0, -87520.84821711162, 0.02, -0.002, 0.984, 192.0, 0.0, 0.0, 0.0, 0.0, 0.0, 0.0, 0.0, 0.0, 0.0, 1.717238233431568E9, 0.0, 2024-06-01 03:37:13.431
199.0, 187500.0, -26240.702121341485, 187500.0, 187500.0, 187500.0, 187500.0, 187500.0, -87526.88318811455, 0.02, -0.002, 0.984, 192.0, 0.0, 0.0, 0.0, 0.0, 0.0, 0.0, 0.0, 0.0, 0.0, 1.7172382334315803E9, 0.0, 2024-06-01 03:37:13.431
200.0, 187500.0, -26243.563144631764, 187500.0, 187500.0, 187500.0, 187500.0, 187500.0, -87541.63533945505, 0.02, -0.002, 0.984, 192.0, 0.0, 0.0, 0.0, 0.0, 0.0, 0.0, 0.0, 0.0, 0.0, 1.7172382334315922E9, 0.0, 2024-06-01 03:37:13.431
201.0, 187500.0, -26233.10252822668, 187500.0, 187500.0, 187500.0, 187500.0, 187500.0, -87545.94922613492, 0.02, -0.002, 0.984, 192.0, 0.0, 0.0, 0.0, 0.0, 0.0, 0.0, 0.0, 0.0, 0.0, 1.7172382334316044E9, 0.0, 2024-06-01 03:37:13.431
202.0, 187500.0, -26224.184182189012, 187500.0, 187500.0, 187500.0, 187500.0, 187500.0, -87531.46529572789, 0.02, -0.002, 0.984, 192.0, 0.0, 0.0, 0.0, 0.0, 0.0, 0.0, 0.0, 0.0, 0.0, 1.7172382334316163E9, 0.0, 2024-06-01 03:37:13.431
203.0, 187500.0, -26238.422243407043, 187500.0, 187500.0, 187500.0, 187500.0, 187500.0, -87533.47695272887, 0.02, -0.002, 0.984, 192.0, 0.0, 0.0, 0.0, 0.0, 0.0, 0.0, 0.0, 0.0, 0.0, 1.7172382334316285E9, 0.0, 2024-06-01 03:37:13.431
204.0, 187500.0, -26249.1957842345, 187500.0, 187500.0, 187500.0, 187500.0, 187500.0, -87538.2602260423, 0.02, -0.002, 0.984, 192.0, 0.0, 0.0, 0.0, 0.0, 0.0, 0.0, 0.0, 0.0, 0.0, 1.7172382334316404E9, 0.0, 2024-06-01 03:37:13.431
205.0, 187500.0, -26247.675865611538, 187500.0, 187500.0, 187500.0, 187500.0, 187500.0, -87540.09306908764, 0.02, -0.002, 0.984, 192.0, 0.0, 0.0, 0.0, 0.0, 0.0, 0.0, 0.0, 0.0, 0.0, 1.7172382334316523E9, 0.0, 2024-06-01 03:37:13.431
206.0, 187500.0, -26239.249257951888, 187500.0, 187500.0, 187500.0, 187500.0, 187500.0, -87524.24568226883, 0.016, 0.0, 0.98, 192.0, 0.0, 128.0, 0.0, 0.0, 30.0, 160.0, 0.0, 0.0, 0.0, 1.7172382334316645E9, 0.0, 2024-06-01 03:37:13.431
207.0, 187500.0, -26244.65838011007, 187500.0, 187500.0, 187500.0, 187500.0, 187500.0, -87509.96291756189, 0.016, 0.0, 0.98, 192.0, 0.0, 0.0, 0.0, 0.0, 0.0, 0.0, 0.0, 0.0, 0.0, 1.717238233431677E9, 0.0, 2024-06-01 03:37:13.431
208.0, 187500.0, -26247.564106889262, 187500.0, 187500.0, 187500.0, 187500.0, 187500.0, -87513.98623156385, 0.016, 0.0, 0.98, 192.0, 0.0, 0.0, 0.0, 0.0, 0.0, 0.0, 0.0, 0.0, 0.0, 1.7172382334316893E9, 0.0, 2024-06-01 03:37:13.431
209.0, 187500.0, -26231.91788577055, 187500.0, 187500.0, 187500.0, 187500.0, 187500.0, -87523.23985376833, 0.016, 0.0, 0.98, 192.0, 0.0, 0.0, 0.0, 0.0, 0.0, 0.0, 0.0, 0.0, 0.0, 1.7172382334317012E9, 0.0, 2024-06-01 03:37:13.431
210.0, 187500.0, -26218.596246075183, 187500.0, 187500.0, 187500.0, 187500.0, 187500.0, -87527.33022300366, 0.016, 0.0, 0.98, 192.0, 0.0, 0.0, 0.0, 0.0, 0.0, 0.0, 0.0, 0.0, 0.0, 1.717238233431713E9, 0.0, 2024-06-01 03:37:13.431
211.0, 187500.0, -26225.56999034524, 187500.0, 187500.0, 187500.0, 187500.0, 187500.0, -87518.79185662173, 0.016, 0.0, 0.98, 192.0, 0.0, 0.0, 0.0, 0.0, 0.0, 0.0, 0.0, 0.0, 0.0, 1.7172382334317248E9, 0.0, 2024-06-01 03:37:13.431
212.0, 187500.0, -26240.612714363662, 187500.0, 187500.0, 187500.0, 187500.0, 187500.0, -87515.39439146452, 0.016, 0.0, 0.98, 192.0, 0.0, 0.0, 0.0, 0.0, 0.0, 0.0, 0.0, 0.0, 0.0, 1.717238233431737E9, 0.0, 2024-06-01 03:37:13.431
213.0, 187500.0, -26241.976170775437, 187500.0, 187500.0, 187500.0, 187500.0, 187500.0, -87526.48085671436, 0.016, 0.0, 0.98, 192.0, 0.0, 0.0, 0.0, 0.0, 0.0, 0.0, 0.0, 0.0, 0.0, 1.717238233431756E9, 0.0, 2024-06-01 03:37:13.431
214.0, 187500.0, -26231.76142355936, 187500.0, 187500.0, 187500.0, 187500.0, 187500.0, -87517.04842055422, 0.016, 0.0, 0.98, 192.0, 0.0, 0.0, 0.0, 0.0, 0.0, 0.0, 0.0, 0.0, 0.0, 1.717238233431768E9, 0.0, 2024-06-01 03:37:13.431
215.0, 187500.0, -26237.729339328926, 187500.0, 187500.0, 187500.0, 187500.0, 187500.0, -87505.31375471519, 0.016, 0.0, 0.98, 192.0, 0.0, 0.0, 0.0, 0.0, 0.0, 0.0, 0.0, 0.0, 0.0, 1.71723823343178E9, 0.0, 2024-06-01 03:37:13.431
216.0, 187500.0, -26244.546621387795, 187500.0, 187500.0, 187500.0, 187500.0, 187500.0, -87503.45855992539, 0.014, -0.004, 0.978, 192.0, 0.0, 112.0, 255.0, 224.0, 30.0, 144.0, 0.0, 0.0, 0.0, 1.717238233431792E9, 0.0, 2024-06-01 03:37:13.431
217.0, 187500.0, -26236.120013728145, 187500.0, 187500.0, 187500.0, 187500.0, 187500.0, -87513.71801063037, 0.014, -0.004, 0.978, 192.0, 0.0, 0.0, 0.0, 0.0, 0.0, 0.0, 0.0, 0.0, 0.0, 1.7172382334318044E9, 0.0, 2024-06-01 03:37:13.431
218.0, 187500.0, -26233.795432304792, 187500.0, 187500.0, 187500.0, 187500.0, 187500.0, -87519.41770546648, 0.014, -0.004, 0.978, 192.0, 0.0, 0.0, 0.0, 0.0, 0.0, 0.0, 0.0, 0.0, 0.0, 1.7172382334318168E9, 0.0, 2024-06-01 03:37:13.431
219.0, 187500.0, -26232.163754959554, 187500.0, 187500.0, 187500.0, 187500.0, 187500.0, -87513.71801063037, 0.014, -0.004, 0.978, 192.0, 0.0, 0.0, 0.0, 0.0, 0.0, 0.0, 0.0, 0.0, 0.0, 1.7172382334318287E9, 0.0, 2024-06-01 03:37:13.431
220.0, 187500.0, -26232.074347981736, 187500.0, 187500.0, 187500.0, 187500.0, 187500.0, -87509.18060650595, 0.014, -0.004, 0.978, 192.0, 0.0, 0.0, 0.0, 0.0, 0.0, 0.0, 0.0, 0.0, 0.0, 1.717238233431841E9, 0.0, 2024-06-01 03:37:13.431
221.0, 187500.0, -26238.399891662586, 187500.0, 187500.0, 187500.0, 187500.0, 187500.0, -87517.04842055422, 0.014, -0.004, 0.978, 192.0, 0.0, 0.0, 0.0, 0.0, 0.0, 0.0, 0.0, 0.0, 0.0, 1.717238233431853E9, 0.0, 2024-06-01 03:37:13.431
222.0, 187500.0, -26233.1919352045, 187500.0, 187500.0, 187500.0, 187500.0, 187500.0, -87523.35161249062, 0.014, -0.004, 0.978, 192.0, 0.0, 0.0, 0.0, 0.0, 0.0, 0.0, 0.0, 0.0, 0.0, 1.7172382334318652E9, 0.0, 2024-06-01 03:37:13.431
223.0, 187500.0, -26230.353263658675, 187500.0, 187500.0, 187500.0, 187500.0, 187500.0, -87514.76854261977, 0.014, -0.004, 0.978, 192.0, 0.0, 0.0, 0.0, 0.0, 0.0, 0.0, 0.0, 0.0, 0.0, 1.7172382334318771E9, 0.0, 2024-06-01 03:37:13.431
224.0, 187500.0, -26240.679769597027, 187500.0, 187500.0, 187500.0, 187500.0, 187500.0, -87513.71801063037, 0.014, -0.004, 0.978, 192.0, 0.0, 0.0, 0.0, 0.0, 0.0, 0.0, 0.0, 0.0, 0.0, 1.7172382334318893E9, 0.0, 2024-06-01 03:37:13.431
225.0, 187500.0, -26247.13942374461, 187500.0, 187500.0, 187500.0, 187500.0, 187500.0, -87513.51684493027, 0.014, -0.004, 0.978, 192.0, 0.0, 0.0, 0.0, 0.0, 0.0, 0.0, 0.0, 0.0, 0.0, 1.7172382334319012E9, 0.0, 2024-06-01 03:37:13.431
226.0, 187500.0, -26232.56608635975, 187500.0, 187500.0, 187500.0, 187500.0, 187500.0, -87512.91334782999, 0.018000000000000002, -0.006, 0.98, 192.0, 0.0, 144.0, 255.0, 208.0, 30.0, 160.0, 0.0, 0.0, 0.0, 1.7172382334319131E9, 0.0, 2024-06-01 03:37:13.431
227.0, 187500.0, -26222.48544961041, 187500.0, 187500.0, 187500.0, 187500.0, 187500.0, -87499.0552662677, 0.018000000000000002, -0.006, 0.98, 192.0, 0.0, 0.0, 0.0, 0.0, 0.0, 0.0, 0.0, 0.0, 0.0, 1.7172382334319255E9, 0.0, 2024-06-01 03:37:13.431
228.0, 187500.0, -26234.533039871818, 187500.0, 187500.0, 187500.0, 187500.0, 187500.0, -87500.7539988463, 0.018000000000000002, -0.006, 0.98, 192.0, 0.0, 0.0, 0.0, 0.0, 0.0, 0.0, 0.0, 0.0, 0.0, 1.717238233431945E9, 0.0, 2024-06-01 03:37:13.431
229.0, 187500.0, -26253.174394747544, 187500.0, 187500.0, 187500.0, 187500.0, 187500.0, -87531.93468236145, 0.018000000000000002, -0.006, 0.98, 192.0, 0.0, 0.0, 0.0, 0.0, 0.0, 0.0, 0.0, 0.0, 0.0, 1.7172382334319572E9, 0.0, 2024-06-01 03:37:13.431
230.0, 187500.0, -26250.38042669063, 187500.0, 187500.0, 187500.0, 187500.0, 187500.0, -87536.09210683014, 0.018000000000000002, -0.006, 0.98, 192.0, 0.0, 0.0, 0.0, 0.0, 0.0, 0.0, 0.0, 0.0, 0.0, 1.7172382334319692E9, 0.0, 2024-06-01 03:37:13.431
231.0, 187500.0, -26247.318237700256, 187500.0, 187500.0, 187500.0, 187500.0, 187500.0, -87537.67908068646, 0.018000000000000002, -0.006, 0.98, 192.0, 0.0, 0.0, 0.0, 0.0, 0.0, 0.0, 0.0, 0.0, 0.0, 1.7172382334319816E9, 0.0, 2024-06-01 03:37:13.431
232.0, 187500.0, -26252.48149066943, 187500.0, 187500.0, 187500.0, 187500.0, 187500.0, -87538.39433650904, 0.018000000000000002, -0.006, 0.98, 192.0, 0.0, 0.0, 0.0, 0.0, 0.0, 0.0, 0.0, 0.0, 0.0, 1.7172382334319935E9, 0.0, 2024-06-01 03:37:13.431
233.0, 187500.0, -26262.115092529668, 187500.0, 187500.0, 187500.0, 187500.0, 187500.0, -87544.65282495652, 0.018000000000000002, -0.006, 0.98, 192.0, 0.0, 0.0, 0.0, 0.0, 0.0, 0.0, 0.0, 0.0, 0.0, 1.7172382334320056E9, 0.0, 2024-06-01 03:37:13.432
234.0, 187500.0, -26255.543679659808, 187500.0, 187500.0, 187500.0, 187500.0, 187500.0, -87551.78303143776, 0.018000000000000002, -0.006, 0.98, 192.0, 0.0, 0.0, 0.0, 0.0, 0.0, 0.0, 0.0, 0.0, 0.0, 1.7172382334320178E9, 0.0, 2024-06-01 03:37:13.432
235.0, 187500.0, -26254.403740692585, 187500.0, 187500.0, 187500.0, 187500.0, 187500.0, -87548.22910406937, 0.018000000000000002, -0.006, 0.98, 192.0, 0.0, 0.0, 0.0, 0.0, 0.0, 0.0, 0.0, 0.0, 0.0, 1.71723823343203E9, 0.0, 2024-06-01 03:37:13.432
236.0, 187500.0, -26254.71666511496, 187500.0, 187500.0, 187500.0, 187500.0, 187500.0, -87532.9628626064, 0.024, -0.004, 0.982, 192.0, 0.0, 192.0, 255.0, 224.0, 30.0, 176.0, 0.0, 0.0, 0.0, 1.7172382334320421E9, 0.0, 2024-06-01 03:37:13.432
237.0, 187500.0, -26262.38331346313, 187500.0, 187500.0, 187500.0, 187500.0, 187500.0, -87536.3603277636, 0.024, -0.004, 0.982, 192.0, 0.0, 0.0, 0.0, 0.0, 0.0, 0.0, 0.0, 0.0, 0.0, 1.7172382334320548E9, 0.0, 2024-06-01 03:37:13.432
238.0, 187500.0, -26253.219098236455, 187500.0, 187500.0, 187500.0, 187500.0, 187500.0, -87541.68004294396, 0.024, -0.004, 0.982, 192.0, 0.0, 0.0, 0.0, 0.0, 0.0, 0.0, 0.0, 0.0, 0.0, 1.717238233432067E9, 0.0, 2024-06-01 03:37:13.432
239.0, 187500.0, -26241.52913588633, 187500.0, 187500.0, 187500.0, 187500.0, 187500.0, -87534.28161552925, 0.024, -0.004, 0.982, 192.0, 0.0, 0.0, 0.0, 0.0, 0.0, 0.0, 0.0, 0.0, 0.0, 1.7172382334320788E9, 0.0, 2024-06-01 03:37:13.432
240.0, 187500.0, -26246.58063013323, 187500.0, 187500.0, 187500.0, 187500.0, 187500.0, -87533.11932481758, 0.024, -0.004, 0.982, 192.0, 0.0, 0.0, 0.0, 0.0, 0.0, 0.0, 0.0, 0.0, 0.0, 1.7172382334320908E9, 0.0, 2024-06-01 03:37:13.432
241.0, 187500.0, -26268.172415277055, 187500.0, 187500.0, 187500.0, 187500.0, 187500.0, -87540.83067665466, 0.024, -0.004, 0.982, 192.0, 0.0, 0.0, 0.0, 0.0, 0.0, 0.0, 0.0, 0.0, 0.0, 1.7172382339097643E9, 0.0, 2024-06-01 03:37:13.909
242.0, 187500.0, -26258.29294422781, 187500.0, 187500.0, 187500.0, 187500.0, 187500.0, -87529.94537710493, 0.024, -0.004, 0.982, 192.0, 0.0, 0.0, 0.0, 0.0, 0.0, 0.0, 0.0, 0.0, 0.0, 1.7172382339098113E9, 0.0, 2024-06-01 03:37:13.909
243.0, 187500.0, -26240.3444934302, 187500.0, 187500.0, 187500.0, 187500.0, 187500.0, -87527.82196138168, 0.024, -0.004, 0.982, 192.0, 0.0, 0.0, 0.0, 0.0, 0.0, 0.0, 0.0, 0.0, 0.0, 1.7172382339099123E9, 0.0, 2024-06-01 03:37:13.909
244.0, 187500.0, -26245.95478128848, 187500.0, 187500.0, 187500.0, 187500.0, 187500.0, -87540.89773188804, 0.024, -0.004, 0.982, 192.0, 0.0, 0.0, 0.0, 0.0, 0.0, 0.0, 0.0, 0.0, 0.0, 1.7172382339099393E9, 0.0, 2024-06-01 03:37:13.909
245.0, 187500.0, -26251.38625519112, 187500.0, 187500.0, 187500.0, 187500.0, 187500.0, -87535.15333356302, 0.024, -0.004, 0.982, 192.0, 0.0, 0.0, 0.0, 0.0, 0.0, 0.0, 0.0, 0.0, 0.0, 1.7172382339099543E9, 0.0, 2024-06-01 03:37:13.909
246.0, 187500.0, -26241.43972890851, 187500.0, 187500.0, 187500.0, 187500.0, 187500.0, -87529.14071430454, 0.026000000000000002, -0.006, 0.98, 192.0, 0.0, 208.0, 255.0, 208.0, 30.0, 160.0, 0.0, 0.0, 0.0, 1.7172382339099667E9, 0.0, 2024-06-01 03:37:13.909
247.0, 187500.0, -26231.53790611481, 187500.0, 187500.0, 187500.0, 187500.0, 187500.0, -87518.94831883292, 0.026000000000000002, -0.006, 0.98, 192.0, 0.0, 0.0, 0.0, 0.0, 0.0, 0.0, 0.0, 0.0, 0.0, 1.7172382339099805E9, 0.0, 2024-06-01 03:37:13.909
248.0, 187500.0, -26238.33283642922, 187500.0, 187500.0, 187500.0, 187500.0, 187500.0, -87515.34968797561, 0.026000000000000002, -0.006, 0.98, 192.0, 0.0, 0.0, 0.0, 0.0, 0.0, 0.0, 0.0, 0.0, 0.0, 1.7172382339099936E9, 0.0, 2024-06-01 03:37:13.909
249.0, 187500.0, -26248.77110108985, 187500.0, 187500.0, 187500.0, 187500.0, 187500.0, -87514.6120804086, 0.026000000000000002, -0.006, 0.98, 192.0, 0.0, 0.0, 0.0, 0.0, 0.0, 0.0, 0.0, 0.0, 0.0, 1.717238233910006E9, 0.0, 2024-06-01 03:37:13.910
250.0, 187500.0, -26250.134557501624, 187500.0, 187500.0, 187500.0, 187500.0, 187500.0, -87518.68009789946, 0.026000000000000002, -0.006, 0.98, 192.0, 0.0, 0.0, 0.0, 0.0, 0.0, 0.0, 0.0, 0.0, 0.0, 1.7172382339100184E9, 0.0, 2024-06-01 03:37:13.910
251.0, 187500.0, -26241.216211463954, 187500.0, 187500.0, 187500.0, 187500.0, 187500.0, -87527.55374044822, 0.026000000000000002, -0.006, 0.98, 192.0, 0.0, 0.0, 0.0, 0.0, 0.0, 0.0, 0.0, 0.0, 0.0, 1.7172382339100313E9, 0.0, 2024-06-01 03:37:13.910
252.0, 187500.0, -26239.361016674164, 187500.0, 187500.0, 187500.0, 187500.0, 187500.0, -87526.36909799208, 0.026000000000000002, -0.006, 0.98, 192.0, 0.0, 0.0, 0.0, 0.0, 0.0, 0.0, 0.0, 0.0, 0.0, 1.717238233910044E9, 0.0, 2024-06-01 03:37:13.910
253.0, 187500.0, -26244.367807432154, 187500.0, 187500.0, 187500.0, 187500.0, 187500.0, -87522.54694969022, 0.026000000000000002, -0.006, 0.98, 192.0, 0.0, 0.0, 0.0, 0.0, 0.0, 0.0, 0.0, 0.0, 0.0, 1.717238233910056E9, 0.0, 2024-06-01 03:37:13.910
254.0, 187500.0, -26244.345455687697, 187500.0, 187500.0, 187500.0, 187500.0, 187500.0, -87523.30690900171, 0.026000000000000002, -0.006, 0.98, 192.0, 0.0, 0.0, 0.0, 0.0, 0.0, 0.0, 0.0, 0.0, 0.0, 1.7172382339100688E9, 0.0, 2024-06-01 03:37:13.910
255.0, 187500.0, -26236.991731761904, 187500.0, 187500.0, 187500.0, 187500.0, 187500.0, -87524.04451656873, 0.026000000000000002, -0.006, 0.98, 192.0, 0.0, 0.0, 0.0, 0.0, 0.0, 0.0, 0.0, 0.0, 0.0, 1.7172382339100816E9, 0.0, 2024-06-01 03:37:13.910
0.0, 187500.0, -26226.95579850147, 187500.0, 187500.0, 187500.0, 187500.0, 187500.0, -87511.14756001801, 0.022, -0.006, 0.982, 192.0, 0.0, 176.0, 255.0, 208.0, 30.0, 176.0, 0.0, 0.0, 0.0, 1.717238233910094E9, 0.0, 2024-06-01 03:37:13.910
1.0, 187500.0, -26236.38823466161, 187500.0, 187500.0, 187500.0, 187500.0, 187500.0, -87497.31183020018, 0.022, -0.006, 0.982, 192.0, 0.0, 0.0, 0.0, 0.0, 0.0, 0.0, 0.0, 0.0, 0.0, 1.717238233910107E9, 0.0, 2024-06-01 03:37:13.910
2.0, 187500.0, -26241.082100997224, 187500.0, 187500.0, 187500.0, 187500.0, 187500.0, -87502.0056965358, 0.022, -0.006, 0.982, 192.0, 0.0, 0.0, 0.0, 0.0, 0.0, 0.0, 0.0, 0.0, 0.0, 1.7172382339101596E9, 0.0, 2024-06-01 03:37:13.910
3.0, 187500.0, -26235.091833483202, 187500.0, 187500.0, 187500.0, 187500.0, 187500.0, -87512.57807166316, 0.022, -0.006, 0.982, 192.0, 0.0, 0.0, 0.0, 0.0, 0.0, 0.0, 0.0, 0.0, 0.0, 1.7172382339101727E9, 0.0, 2024-06-01 03:37:13.910
4.0, 187500.0, -26230.688539825507, 187500.0, 187500.0, 187500.0, 187500.0, 187500.0, -87513.42743795246, 0.022, -0.006, 0.982, 192.0, 0.0, 0.0, 0.0, 0.0, 0.0, 0.0, 0.0, 0.0, 0.0, 1.7172382339101858E9, 0.0, 2024-06-01 03:37:13.910
5.0, 187500.0, -26233.728377071428, 187500.0, 187500.0, 187500.0, 187500.0, 187500.0, -87505.649030882, 0.022, -0.006, 0.982, 192.0, 0.0, 0.0, 0.0, 0.0, 0.0, 0.0, 0.0, 0.0, 0.0, 1.717238233910198E9, 0.0, 2024-06-01 03:37:13.910
6.0, 187500.0, -26241.57383937524, 187500.0, 187500.0, 187500.0, 187500.0, 187500.0, -87510.2534902398, 0.022, -0.006, 0.982, 192.0, 0.0, 0.0, 0.0, 0.0, 0.0, 0.0, 0.0, 0.0, 0.0, 1.7172382339102104E9, 0.0, 2024-06-01 03:37:13.910
7.0, 187500.0, -26236.030606750322, 187500.0, 187500.0, 187500.0, 187500.0, 187500.0, -87517.87543509906, 0.022, -0.006, 0.982, 192.0, 0.0, 0.0, 0.0, 0.0, 0.0, 0.0, 0.0, 0.0, 0.0, 1.7172382339102228E9, 0.0, 2024-06-01 03:37:13.910
8.0, 187500.0, -26226.15113570108, 187500.0, 187500.0, 187500.0, 187500.0, 187500.0, -87523.64218516853, 0.022, -0.006, 0.982, 192.0, 0.0, 0.0, 0.0, 0.0, 0.0, 0.0, 0.0, 0.0, 0.0, 1.7172382339102347E9, 0.0, 2024-06-01 03:37:13.910
9.0, 187500.0, -26242.266743453354, 187500.0, 187500.0, 187500.0, 187500.0, 187500.0, -87521.83169386766, 0.022, -0.006, 0.982, 192.0, 0.0, 0.0, 0.0, 0.0, 0.0, 0.0, 0.0, 0.0, 0.0, 1.717238233910247E9, 0.0, 2024-06-01 03:37:13.910
10.0, 187500.0, -26252.503842413884, 187500.0, 187500.0, 187500.0, 187500.0, 187500.0, -87510.99109780682, 0.022, -0.004, 0.986, 192.0, 0.0, 176.0, 255.0, 224.0, 30.0, 208.0, 0.0, 0.0, 0.0, 1.7172382339102595E9, 0.0, 2024-06-01 03:37:13.910
11.0, 187500.0, -26247.631162122627, 187500.0, 187500.0, 187500.0, 187500.0, 187500.0, -87519.97649907786, 0.022, -0.004, 0.986, 192.0, 0.0, 0.0, 0.0, 0.0, 0.0, 0.0, 0.0, 0.0, 0.0, 1.7172382339102724E9, 0.0, 2024-06-01 03:37:13.910
12.0, 187500.0, -26234.041301493802, 187500.0, 187500.0, 187500.0, 187500.0, 187500.0, -87515.03676355325, 0.022, -0.004, 0.986, 192.0, 0.0, 0.0, 0.0, 0.0, 0.0, 0.0, 0.0, 0.0, 0.0, 1.7172382339102845E9, 0.0, 2024-06-01 03:37:13.910
13.0, 187500.0, -26235.985903261415, 187500.0, 187500.0, 187500.0, 187500.0, 187500.0, -87505.42551343745, 0.022, -0.004, 0.986, 192.0, 0.0, 0.0, 0.0, 0.0, 0.0, 0.0, 0.0, 0.0, 0.0, 1.7172382339102967E9, 0.0, 2024-06-01 03:37:13.910
14.0, 187500.0, -26242.154984731078, 187500.0, 187500.0, 187500.0, 187500.0, 187500.0, -87509.91821407297, 0.022, -0.004, 0.986, 192.0, 0.0, 0.0, 0.0, 0.0, 0.0, 0.0, 0.0, 0.0, 0.0, 1.7172382339103088E9, 0.0, 2024-06-01 03:37:13.910
15.0, 187500.0, -26243.898420798592, 187500.0, 187500.0, 187500.0, 187500.0, 187500.0, -87523.41866772398, 0.022, -0.004, 0.986, 192.0, 0.0, 0.0, 0.0, 0.0, 0.0, 0.0, 0.0, 0.0, 0.0, 1.7172382339103212E9, 0.0, 2024-06-01 03:37:13.910
16.0, 187500.0, -26235.114185227656, 187500.0, 187500.0, 187500.0, 187500.0, 187500.0, -87528.00077533732, 0.022, -0.004, 0.986, 192.0, 0.0, 0.0, 0.0, 0.0, 0.0, 0.0, 0.0, 0.0, 0.0, 1.7172382339103336E9, 0.0, 2024-06-01 03:37:13.910
17.0, 187500.0, -26237.684635840018, 187500.0, 187500.0, 187500.0, 187500.0, 187500.0, -87522.77046713477, 0.022, -0.004, 0.986, 192.0, 0.0, 0.0, 0.0, 0.0, 0.0, 0.0, 0.0, 0.0, 0.0, 1.7172382339103456E9, 0.0, 2024-06-01 03:37:13.910
18.0, 187500.0, -26249.486356912417, 187500.0, 187500.0, 187500.0, 187500.0, 187500.0, -87515.79672286472, 0.022, -0.004, 0.986, 192.0, 0.0, 0.0, 0.0, 0.0, 0.0, 0.0, 0.0, 0.0, 0.0, 1.717238233910368E9, 0.0, 2024-06-01 03:37:13.910
19.0, 187500.0, -26245.999484777392, 187500.0, 187500.0, 187500.0, 187500.0, 187500.0, -87520.69175490043, 0.022, -0.004, 0.986, 192.0, 0.0, 0.0, 0.0, 0.0, 0.0, 0.0, 0.0, 0.0, 0.0, 1.7172382339103804E9, 0.0, 2024-06-01 03:37:13.910
20.0, 187500.0, -26234.82361254974, 187500.0, 187500.0, 187500.0, 187500.0, 187500.0, -87519.64122291103, 0.018000000000000002, -0.006, 0.988, 192.0, 0.0, 144.0, 255.0, 208.0, 30.0, 224.0, 0.0, 0.0, 0.0, 1.7172382339103925E9, 0.0, 2024-06-01 03:37:13.910
21.0, 187500.0, -26231.068519481247, 187500.0, 187500.0, 187500.0, 187500.0, 187500.0, -87516.66844089847, 0.018000000000000002, -0.006, 0.988, 192.0, 0.0, 0.0, 0.0, 0.0, 0.0, 0.0, 0.0, 0.0, 0.0, 1.7172382339104054E9, 0.0, 2024-06-01 03:37:13.910
22.0, 187500.0, -26241.95381903098, 187500.0, 187500.0, 187500.0, 187500.0, 187500.0, -87509.89586232851, 0.018000000000000002, -0.006, 0.988, 192.0, 0.0, 0.0, 0.0, 0.0, 0.0, 0.0, 0.0, 0.0, 0.0, 1.7172382339104176E9, 0.0, 2024-06-01 03:37:13.910
23.0, 187500.0, -26251.25214472439, 187500.0, 187500.0, 187500.0, 187500.0, 187500.0, -87518.27776649926, 0.018000000000000002, -0.006, 0.988, 192.0, 0.0, 0.0, 0.0, 0.0, 0.0, 0.0, 0.0, 0.0, 0.0, 1.71723823391043E9, 0.0, 2024-06-01 03:37:13.910
24.0, 187500.0, -26235.38240616112, 187500.0, 187500.0, 187500.0, 187500.0, 187500.0, -87521.65287991201, 0.018000000000000002, -0.006, 0.988, 192.0, 0.0, 0.0, 0.0, 0.0, 0.0, 0.0, 0.0, 0.0, 0.0, 1.717238233910442E9, 0.0, 2024-06-01 03:37:13.910
25.0, 187500.0, -26228.63217933562, 187500.0, 187500.0, 187500.0, 187500.0, 187500.0, -87508.28653672774, 0.018000000000000002, -0.006, 0.988, 192.0, 0.0, 0.0, 0.0, 0.0, 0.0, 0.0, 0.0, 0.0, 0.0, 1.7172382339104543E9, 0.0, 2024-06-01 03:37:13.910
26.0, 187500.0, -26235.069481738745, 187500.0, 187500.0, 187500.0, 187500.0, 187500.0, -87508.59946115011, 0.018000000000000002, -0.006, 0.988, 192.0, 0.0, 0.0, 0.0, 0.0, 0.0, 0.0, 0.0, 0.0, 0.0, 1.7172382339104664E9, 0.0, 2024-06-01 03:37:13.910
27.0, 187500.0, -26243.272571953843, 187500.0, 187500.0, 187500.0, 187500.0, 187500.0, -87513.69565888592, 0.018000000000000002, -0.006, 0.988, 192.0, 0.0, 0.0, 0.0, 0.0, 0.0, 0.0, 0.0, 0.0, 0.0, 1.7172382339104788E9, 0.0, 2024-06-01 03:37:13.910
28.0, 187500.0, -26248.257010967376, 187500.0, 187500.0, 187500.0, 187500.0, 187500.0, -87522.56930143468, 0.018000000000000002, -0.006, 0.988, 192.0, 0.0, 0.0, 0.0, 0.0, 0.0, 0.0, 0.0, 0.0, 0.0, 1.7172382339104915E9, 0.0, 2024-06-01 03:37:13.910
29.0, 187500.0, -26246.625333622138, 187500.0, 187500.0, 187500.0, 187500.0, 187500.0, -87533.16402830649, 0.018000000000000002, -0.006, 0.988, 192.0, 0.0, 0.0, 0.0, 0.0, 0.0, 0.0, 0.0, 0.0, 0.0, 1.7172382339105036E9, 0.0, 2024-06-01 03:37:13.910
30.0, 187500.0, -26239.51747888535, 187500.0, 187500.0, 187500.0, 187500.0, 187500.0, -87511.92987107395, 0.016, -0.008, 0.984, 192.0, 0.0, 128.0, 255.0, 192.0, 30.0, 192.0, 0.0, 0.0, 0.0, 1.7172382339105158E9, 0.0, 2024-06-01 03:37:13.910
31.0, 187500.0, -26240.32214168574, 187500.0, 187500.0, 187500.0, 187500.0, 187500.0, -87503.14563550301, 0.016, -0.008, 0.984, 192.0, 0.0, 0.0, 0.0, 0.0, 0.0, 0.0, 0.0, 0.0, 0.0, 1.7172382339105284E9, 0.0, 2024-06-01 03:37:13.910
32.0, 187500.0, -26233.3931009046, 187500.0, 187500.0, 187500.0, 187500.0, 187500.0, -87511.63929839604, 0.016, -0.008, 0.984, 192.0, 0.0, 0.0, 0.0, 0.0, 0.0, 0.0, 0.0, 0.0, 0.0, 1.7172382339105408E9, 0.0, 2024-06-01 03:37:13.910
33.0, 187500.0, -26232.499031126386, 187500.0, 187500.0, 187500.0, 187500.0, 187500.0, -87511.08050478465, 0.016, -0.008, 0.984, 192.0, 0.0, 0.0, 0.0, 0.0, 0.0, 0.0, 0.0, 0.0, 0.0, 1.717238233910561E9, 0.0, 2024-06-01 03:37:13.910
34.0, 187500.0, -26231.560257859262, 187500.0, 187500.0, 187500.0, 187500.0, 187500.0, -87499.07761801215, 0.016, -0.008, 0.984, 192.0, 0.0, 0.0, 0.0, 0.0, 0.0, 0.0, 0.0, 0.0, 0.0, 1.7172382339105732E9, 0.0, 2024-06-01 03:37:13.910
35.0, 187500.0, -26247.742920844907, 187500.0, 187500.0, 187500.0, 187500.0, 187500.0, -87502.87741456955, 0.016, -0.008, 0.984, 192.0, 0.0, 0.0, 0.0, 0.0, 0.0, 0.0, 0.0, 0.0, 0.0, 1.7172382339105856E9, 0.0, 2024-06-01 03:37:13.910
36.0, 187500.0, -26244.23369696542, 187500.0, 187500.0, 187500.0, 187500.0, 187500.0, -87515.5061501868, 0.016, -0.008, 0.984, 192.0, 0.0, 0.0, 0.0, 0.0, 0.0, 0.0, 0.0, 0.0, 0.0, 1.7172382339105976E9, 0.0, 2024-06-01 03:37:13.910
37.0, 187500.0, -26230.152097958577, 187500.0, 187500.0, 187500.0, 187500.0, 187500.0, -87514.76854261977, 0.016, -0.008, 0.984, 192.0, 0.0, 0.0, 0.0, 0.0, 0.0, 0.0, 0.0, 0.0, 0.0, 1.7172382339106097E9, 0.0, 2024-06-01 03:37:13.910
38.0, 187500.0, -26216.003443718368, 187500.0, 187500.0, 187500.0, 187500.0, 187500.0, -87489.84634755211, 0.016, -0.008, 0.984, 192.0, 0.0, 0.0, 0.0, 0.0, 0.0, 0.0, 0.0, 0.0, 0.0, 1.7172382339106224E9, 0.0, 2024-06-01 03:37:13.910
39.0, 187500.0, -26219.847943764682, 187500.0, 187500.0, 187500.0, 187500.0, 187500.0, -87489.66753359647, 0.016, -0.008, 0.984, 192.0, 0.0, 0.0, 0.0, 0.0, 0.0, 0.0, 0.0, 0.0, 0.0, 1.7172382339106345E9, 0.0, 2024-06-01 03:37:13.910
40.0, 187500.0, -26246.804147577783, 187500.0, 187500.0, 187500.0, 187500.0, 187500.0, -87528.17958929297, 0.018000000000000002, -0.008, 0.988, 192.0, 0.0, 144.0, 255.0, 192.0, 30.0, 224.0, 0.0, 0.0, 0.0, 1.7172382339106467E9, 0.0, 2024-06-01 03:37:13.910
41.0, 187500.0, -26244.323103943243, 187500.0, 187500.0, 187500.0, 187500.0, 187500.0, -87522.36813573458, 0.018000000000000002, -0.008, 0.988, 192.0, 0.0, 0.0, 0.0, 0.0, 0.0, 0.0, 0.0, 0.0, 0.0, 1.7172382339106593E9, 0.0, 2024-06-01 03:37:13.910
42.0, 187500.0, -26243.831365565227, 187500.0, 187500.0, 187500.0, 187500.0, 187500.0, -87508.8006268502, 0.018000000000000002, -0.008, 0.988, 192.0, 0.0, 0.0, 0.0, 0.0, 0.0, 0.0, 0.0, 0.0, 0.0, 1.7172382339106717E9, 0.0, 2024-06-01 03:37:13.910
43.0, 187500.0, -26250.313371457265, 187500.0, 187500.0, 187500.0, 187500.0, 187500.0, -87515.03676355325, 0.018000000000000002, -0.008, 0.988, 192.0, 0.0, 0.0, 0.0, 0.0, 0.0, 0.0, 0.0, 0.0, 0.0, 1.7172382339106836E9, 0.0, 2024-06-01 03:37:13.910
44.0, 187500.0, -26267.92654608805, 187500.0, 187500.0, 187500.0, 187500.0, 187500.0, -87531.46529572789, 0.018000000000000002, -0.008, 0.988, 192.0, 0.0, 0.0, 0.0, 0.0, 0.0, 0.0, 0.0, 0.0, 0.0, 1.7172382339106956E9, 0.0, 2024-06-01 03:37:13.910
45.0, 187500.0, -26253.509670914373, 187500.0, 187500.0, 187500.0, 187500.0, 187500.0, -87532.20290329492, 0.018000000000000002, -0.008, 0.988, 192.0, 0.0, 0.0, 0.0, 0.0, 0.0, 0.0, 0.0, 0.0, 0.0, 1.7172382339107077E9, 0.0, 2024-06-01 03:37:13.910
46.0, 187500.0, -26253.040284280814, 187500.0, 187500.0, 187500.0, 187500.0, 187500.0, -87535.08627832965, 0.018000000000000002, -0.008, 0.988, 192.0, 0.0, 0.0, 0.0, 0.0, 0.0, 0.0, 0.0, 0.0, 0.0, 1.71723823391072E9, 0.0, 2024-06-01 03:37:13.910
47.0, 187500.0, -26268.574746677252, 187500.0, 187500.0, 187500.0, 187500.0, 187500.0, -87527.44198172593, 0.018000000000000002, -0.008, 0.988, 192.0, 0.0, 0.0, 0.0, 0.0, 0.0, 0.0, 0.0, 0.0, 0.0, 1.717238233910732E9, 0.0, 2024-06-01 03:37:13.910
48.0, 187500.0, -26273.134502546134, 187500.0, 187500.0, 187500.0, 187500.0, 187500.0, -87532.04644108373, 0.018000000000000002, -0.008, 0.988, 192.0, 0.0, 0.0, 0.0, 0.0, 0.0, 0.0, 0.0, 0.0, 0.0, 1.7172382339107525E9, 0.0, 2024-06-01 03:37:13.910
49.0, 187500.0, -26254.180223248033, 187500.0, 187500.0, 187500.0, 187500.0, 187500.0, -87548.25145581382, 0.018000000000000002, -0.008, 0.988, 192.0, 0.0, 0.0, 0.0, 0.0, 0.0, 0.0, 0.0, 0.0, 0.0, 1.7172382339107652E9, 0.0, 2024-06-01 03:37:13.910
50.0, 187500.0, -26237.841098051205, 187500.0, 187500.0, 187500.0, 187500.0, 187500.0, -87537.12028707509, 0.022, -0.012, 0.988, 192.0, 0.0, 176.0, 255.0, 160.0, 30.0, 224.0, 0.0, 0.0, 0.0, 1.717238233910777E9, 0.0, 2024-06-01 03:37:13.910
51.0, 187500.0, -26256.907136071582, 187500.0, 187500.0, 187500.0, 187500.0, 187500.0, -87524.49155145783, 0.022, -0.012, 0.988, 192.0, 0.0, 0.0, 0.0, 0.0, 0.0, 0.0, 0.0, 0.0, 0.0, 1.71723823391079E9, 0.0, 2024-06-01 03:37:13.910
52.0, 187500.0, -26266.00429606489, 187500.0, 187500.0, 187500.0, 187500.0, 187500.0, -87530.50417071632, 0.022, -0.012, 0.988, 192.0, 0.0, 0.0, 0.0, 0.0, 0.0, 0.0, 0.0, 0.0, 0.0, 1.7172382339108021E9, 0.0, 2024-06-01 03:37:13.910
53.0, 187500.0, -26253.174394747544, 187500.0, 187500.0, 187500.0, 187500.0, 187500.0, -87535.1086300741, 0.022, -0.012, 0.988, 192.0, 0.0, 0.0, 0.0, 0.0, 0.0, 0.0, 0.0, 0.0, 0.0, 1.7172382339108143E9, 0.0, 2024-06-01 03:37:13.910
54.0, 187500.0, -26235.874144539135, 187500.0, 187500.0, 187500.0, 187500.0, 187500.0, -87524.69271715793, 0.022, -0.012, 0.988, 192.0, 0.0, 0.0, 0.0, 0.0, 0.0, 0.0, 0.0, 0.0, 0.0, 1.717238233910833E9, 0.0, 2024-06-01 03:37:13.910
55.0, 187500.0, -26244.993656276903, 187500.0, 187500.0, 187500.0, 187500.0, 187500.0, -87513.04745829671, 0.022, -0.012, 0.988, 192.0, 0.0, 0.0, 0.0, 0.0, 0.0, 0.0, 0.0, 0.0, 0.0, 1.717238233910852E9, 0.0, 2024-06-01 03:37:13.910
56.0, 187500.0, -26265.06552279777, 187500.0, 187500.0, 187500.0, 187500.0, 187500.0, -87520.22236826687, 0.022, -0.012, 0.988, 192.0, 0.0, 0.0, 0.0, 0.0, 0.0, 0.0, 0.0, 0.0, 0.0, 1.7172382339108715E9, 0.0, 2024-06-01 03:37:13.910
57.0, 187500.0, -26260.550470417795, 187500.0, 187500.0, 187500.0, 187500.0, 187500.0, -87540.42834525446, 0.022, -0.012, 0.988, 192.0, 0.0, 0.0, 0.0, 0.0, 0.0, 0.0, 0.0, 0.0, 0.0, 1.7172382339108906E9, 0.0, 2024-06-01 03:37:13.910
58.0, 187500.0, -26243.67490335404, 187500.0, 187500.0, 187500.0, 187500.0, 187500.0, -87541.45652549941, 0.022, -0.012, 0.988, 192.0, 0.0, 0.0, 0.0, 0.0, 0.0, 0.0, 0.0, 0.0, 0.0, 1.7172382339109104E9, 0.0, 2024-06-01 03:37:13.910
59.0, 187500.0, -26235.650627094583, 187500.0, 187500.0, 187500.0, 187500.0, 187500.0, -87517.6072141656, 0.018000000000000002, -0.008, 0.988, 192.0, 0.0, 144.0, 255.0, 192.0, 30.0, 224.0, 0.0, 0.0, 0.0, 1.7172382339109235E9, 0.0, 2024-06-01 03:37:13.910
60.0, 187500.0, -26260.48341518443, 187500.0, 187500.0, 187500.0, 187500.0, 187500.0, -87513.47214144137, 0.018000000000000002, -0.008, 0.988, 192.0, 0.0, 0.0, 0.0, 0.0, 0.0, 0.0, 0.0, 0.0, 0.0, 1.717238233910942E9, 0.0, 2024-06-01 03:37:13.910
61.0, 187500.0, -26261.91392682957, 187500.0, 187500.0, 187500.0, 187500.0, 187500.0, -87526.77142939228, 0.018000000000000002, -0.008, 0.988, 192.0, 0.0, 0.0, 0.0, 0.0, 0.0, 0.0, 0.0, 0.0, 0.0, 1.717238233910967E9, 0.0, 2024-06-01 03:37:13.910
62.0, 187500.0, -26245.999484777392, 187500.0, 187500.0, 187500.0, 187500.0, 187500.0, -87531.73351666135, 0.018000000000000002, -0.008, 0.988, 192.0, 0.0, 0.0, 0.0, 0.0, 0.0, 0.0, 0.0, 0.0, 0.0, 1.717238233910987E9, 0.0, 2024-06-01 03:37:13.910
63.0, 187500.0, -26248.3464179452, 187500.0, 187500.0, 187500.0, 187500.0, 187500.0, -87526.01147008079, 0.018000000000000002, -0.008, 0.988, 192.0, 0.0, 0.0, 0.0, 0.0, 0.0, 0.0, 0.0, 0.0, 0.0, 1.7172382339110107E9, 0.0, 2024-06-01 03:37:13.911
64.0, 187500.0, -26252.973229047446, 187500.0, 187500.0, 187500.0, 187500.0, 187500.0, -87512.37690596306, 0.018000000000000002, -0.008, 0.988, 192.0, 0.0, 0.0, 0.0, 0.0, 0.0, 0.0, 0.0, 0.0, 0.0, 1.7172382339110236E9, 0.0, 2024-06-01 03:37:13.911
65.0, 187500.0, -26257.287115727322, 187500.0, 187500.0, 187500.0, 187500.0, 187500.0, -87521.74228688983, 0.018000000000000002, -0.008, 0.988, 192.0, 0.0, 0.0, 0.0, 0.0, 0.0, 0.0, 0.0, 0.0, 0.0, 1.717238233911036E9, 0.0, 2024-06-01 03:37:13.911
66.0, 187500.0, -26250.715702857462, 187500.0, 187500.0, 187500.0, 187500.0, 187500.0, -87543.08820284465, 0.018000000000000002, -0.008, 0.988, 192.0, 0.0, 0.0, 0.0, 0.0, 0.0, 0.0, 0.0, 0.0, 0.0, 1.7172382339110484E9, 0.0, 2024-06-01 03:37:13.911
67.0, 187500.0, -26249.709874356973, 187500.0, 187500.0, 187500.0, 187500.0, 187500.0, -87536.38267950805, 0.018000000000000002, -0.008, 0.988, 192.0, 0.0, 0.0, 0.0, 0.0, 0.0, 0.0, 0.0, 0.0, 0.0, 1.7172382339110603E9, 0.0, 2024-06-01 03:37:13.911
68.0, 187500.0, -26257.95766806098, 187500.0, 187500.0, 187500.0, 187500.0, 187500.0, -87528.89484511553, 0.018000000000000002, -0.008, 0.988, 192.0, 0.0, 0.0, 0.0, 0.0, 0.0, 0.0, 0.0, 0.0, 0.0, 1.7172382339110725E9, 0.0, 2024-06-01 03:37:13.911
69.0, 187500.0, -26263.836176852725, 187500.0, 187500.0, 187500.0, 187500.0, 187500.0, -87539.914255132, 0.014, -0.01, 0.986, 192.0, 0.0, 112.0, 255.0, 176.0, 30.0, 208.0, 0.0, 0.0, 0.0, 1.717238233911085E9, 0.0, 2024-06-01 03:37:13.911
70.0, 187500.0, -26264.05969429728, 187500.0, 187500.0, 187500.0, 187500.0, 187500.0, -87535.26509228529, 0.014, -0.01, 0.986, 192.0, 0.0, 0.0, 0.0, 0.0, 0.0, 0.0, 0.0, 0.0, 0.0, 1.7172382339110975E9, 0.0, 2024-06-01 03:37:13.911
71.0, 187500.0, -26258.583516905728, 187500.0, 187500.0, 187500.0, 187500.0, 187500.0, -87519.5071124443, 0.014, -0.01, 0.986, 192.0, 0.0, 0.0, 0.0, 0.0, 0.0, 0.0, 0.0, 0.0, 0.0, 1.71723823391111E9, 0.0, 2024-06-01 03:37:13.911
72.0, 187500.0, -26260.48341518443, 187500.0, 187500.0, 187500.0, 187500.0, 187500.0, -87513.11451353009, 0.014, -0.01, 0.986, 192.0, 0.0, 0.0, 0.0, 0.0, 0.0, 0.0, 0.0, 0.0, 0.0, 1.7172382339111223E9, 0.0, 2024-06-01 03:37:13.911
73.0, 187500.0, -26267.144235032112, 187500.0, 187500.0, 187500.0, 187500.0, 187500.0, -87530.43711548294, 0.014, -0.01, 0.986, 192.0, 0.0, 0.0, 0.0, 0.0, 0.0, 0.0, 0.0, 0.0, 0.0, 1.7172382339111345E9, 0.0, 2024-06-01 03:37:13.911
74.0, 187500.0, -26253.420263936554, 187500.0, 187500.0, 187500.0, 187500.0, 187500.0, -87530.8617986276, 0.014, -0.01, 0.986, 192.0, 0.0, 0.0, 0.0, 0.0, 0.0, 0.0, 0.0, 0.0, 0.0, 1.7172382339111464E9, 0.0, 2024-06-01 03:37:13.911
75.0, 187500.0, -26246.223002221945, 187500.0, 187500.0, 187500.0, 187500.0, 187500.0, -87524.53625494674, 0.014, -0.01, 0.986, 192.0, 0.0, 0.0, 0.0, 0.0, 0.0, 0.0, 0.0, 0.0, 0.0, 1.7172382339111607E9, 0.0, 2024-06-01 03:37:13.911
76.0, 187500.0, -26259.879918084138, 187500.0, 187500.0, 187500.0, 187500.0, 187500.0, -87521.29525200072, 0.014, -0.01, 0.986, 192.0, 0.0, 0.0, 0.0, 0.0, 0.0, 0.0, 0.0, 0.0, 0.0, 1.717238233911174E9, 0.0, 2024-06-01 03:37:13.911
77.0, 187500.0, -26272.44159846802, 187500.0, 187500.0, 187500.0, 187500.0, 187500.0, -87532.02408933928, 0.014, -0.01, 0.986, 192.0, 0.0, 0.0, 0.0, 0.0, 0.0, 0.0, 0.0, 0.0, 0.0, 1.717238233911186E9, 0.0, 2024-06-01 03:37:13.911
78.0, 187500.0, -26265.467854197963, 187500.0, 187500.0, 187500.0, 187500.0, 187500.0, -87540.69656618794, 0.014, -0.01, 0.986, 192.0, 0.0, 0.0, 0.0, 0.0, 0.0, 0.0, 0.0, 0.0, 0.0, 1.7172382339112067E9, 0.0, 2024-06-01 03:37:13.911
79.0, 187500.0, -26250.402778435087, 187500.0, 187500.0, 187500.0, 187500.0, 187500.0, -87531.3088335167, 0.018000000000000002, -0.004, 0.986, 192.0, 0.0, 144.0, 255.0, 224.0, 30.0, 208.0, 0.0, 0.0, 0.0, 1.7172382339112191E9, 0.0, 2024-06-01 03:37:13.911
80.0, 187500.0, -26259.47758668394, 187500.0, 187500.0, 187500.0, 187500.0, 187500.0, -87522.43519096795, 0.018000000000000002, -0.004, 0.986, 192.0, 0.0, 0.0, 0.0, 0.0, 0.0, 0.0, 0.0, 0.0, 0.0, 1.7172382339112344E9, 0.0, 2024-06-01 03:37:13.911
81.0, 187500.0, -26268.842967610715, 187500.0, 187500.0, 187500.0, 187500.0, 187500.0, -87522.97163283487, 0.018000000000000002, -0.004, 0.986, 192.0, 0.0, 0.0, 0.0, 0.0, 0.0, 0.0, 0.0, 0.0, 0.0, 1.717238233911248E9, 0.0, 2024-06-01 03:37:13.911
82.0, 187500.0, -26262.875051841147, 187500.0, 187500.0, 187500.0, 187500.0, 187500.0, -87520.13296128905, 0.018000000000000002, -0.004, 0.986, 192.0, 0.0, 0.0, 0.0, 0.0, 0.0, 0.0, 0.0, 0.0, 0.0, 1.717238233911261E9, 0.0, 2024-06-01 03:37:13.911
83.0, 187500.0, -26247.921734800548, 187500.0, 187500.0, 187500.0, 187500.0, 187500.0, -87522.92692934597, 0.018000000000000002, -0.004, 0.986, 192.0, 0.0, 0.0, 0.0, 0.0, 0.0, 0.0, 0.0, 0.0, 0.0, 1.7172382339112732E9, 0.0, 2024-06-01 03:37:13.911
84.0, 187500.0, -26252.72735985844, 187500.0, 187500.0, 187500.0, 187500.0, 187500.0, -87523.35161249062, 0.018000000000000002, -0.004, 0.986, 192.0, 0.0, 0.0, 0.0, 0.0, 0.0, 0.0, 0.0, 0.0, 0.0, 1.7172382339112856E9, 0.0, 2024-06-01 03:37:13.911
85.0, 187500.0, -26264.327915230744, 187500.0, 187500.0, 187500.0, 187500.0, 187500.0, -87513.82976935265, 0.018000000000000002, -0.004, 0.986, 192.0, 0.0, 0.0, 0.0, 0.0, 0.0, 0.0, 0.0, 0.0, 0.0, 1.717238233911298E9, 0.0, 2024-06-01 03:37:13.911
86.0, 187500.0, -26267.0995315432, 187500.0, 187500.0, 187500.0, 187500.0, 187500.0, -87527.73255440386, 0.018000000000000002, -0.004, 0.986, 192.0, 0.0, 0.0, 0.0, 0.0, 0.0, 0.0, 0.0, 0.0, 0.0, 1.71723823391131E9, 0.0, 2024-06-01 03:37:13.911
87.0, 187500.0, -26259.63404889513, 187500.0, 187500.0, 187500.0, 187500.0, 187500.0, -87541.99296736634, 0.018000000000000002, -0.004, 0.986, 192.0, 0.0, 0.0, 0.0, 0.0, 0.0, 0.0, 0.0, 0.0, 0.0, 1.7172382339113228E9, 0.0, 2024-06-01 03:37:13.911
88.0, 187500.0, -26254.470795925954, 187500.0, 187500.0, 187500.0, 187500.0, 187500.0, -87522.97163283487, 0.018000000000000002, -0.004, 0.986, 192.0, 0.0, 0.0, 0.0, 0.0, 0.0, 0.0, 0.0, 0.0, 0.0, 1.7172382339113348E9, 0.0, 2024-06-01 03:37:13.911
89.0, 187500.0, -26267.25599375439, 187500.0, 187500.0, 187500.0, 187500.0, 187500.0, -87519.35065023311, 0.018000000000000002, -0.008, 0.982, 192.0, 0.0, 144.0, 255.0, 192.0, 30.0, 176.0, 0.0, 0.0, 0.0, 1.717238233911347E9, 0.0, 2024-06-01 03:37:13.911
90.0, 187500.0, -26265.82548210925, 187500.0, 187500.0, 187500.0, 187500.0, 187500.0, -87525.78795263624, 0.018000000000000002, -0.008, 0.982, 192.0, 0.0, 0.0, 0.0, 0.0, 0.0, 0.0, 0.0, 0.0, 0.0, 1.7172382339113595E9, 0.0, 2024-06-01 03:37:13.911
91.0, 187500.0, -26260.997505306903, 187500.0, 187500.0, 187500.0, 187500.0, 187500.0, -87527.12905730357, 0.018000000000000002, -0.008, 0.982, 192.0, 0.0, 0.0, 0.0, 0.0, 0.0, 0.0, 0.0, 0.0, 0.0, 1.7172382339113717E9, 0.0, 2024-06-01 03:37:13.911
92.0, 187500.0, -26262.048037296303, 187500.0, 187500.0, 187500.0, 187500.0, 187500.0, -87528.17958929297, 0.018000000000000002, -0.008, 0.982, 192.0, 0.0, 0.0, 0.0, 0.0, 0.0, 0.0, 0.0, 0.0, 0.0, 1.7172382339113839E9, 0.0, 2024-06-01 03:37:13.911
93.0, 187500.0, -26263.232679752433, 187500.0, 187500.0, 187500.0, 187500.0, 187500.0, -87525.83265612516, 0.018000000000000002, -0.008, 0.982, 192.0, 0.0, 0.0, 0.0, 0.0, 0.0, 0.0, 0.0, 0.0, 0.0, 1.7172382339117527E9, 0.0, 2024-06-01 03:37:13.911
94.0, 187500.0, -26267.144235032112, 187500.0, 187500.0, 187500.0, 187500.0, 187500.0, -87527.01729858128, 0.018000000000000002, -0.008, 0.982, 192.0, 0.0, 0.0, 0.0, 0.0, 0.0, 0.0, 0.0, 0.0, 0.0, 1.7172382339117756E9, 0.0, 2024-06-01 03:37:13.911
95.0, 187500.0, -26253.397912192097, 187500.0, 187500.0, 187500.0, 187500.0, 187500.0, -87524.08922005763, 0.018000000000000002, -0.008, 0.982, 192.0, 0.0, 0.0, 0.0, 0.0, 0.0, 0.0, 0.0, 0.0, 0.0, 1.7172382339117954E9, 0.0, 2024-06-01 03:37:13.911
96.0, 187500.0, -26246.223002221945, 187500.0, 187500.0, 187500.0, 187500.0, 187500.0, -87511.63929839604, 0.018000000000000002, -0.008, 0.982, 192.0, 0.0, 0.0, 0.0, 0.0, 0.0, 0.0, 0.0, 0.0, 0.0, 1.717238233911811E9, 0.0, 2024-06-01 03:37:13.911
97.0, 187500.0, -26250.0451505238, 187500.0, 187500.0, 187500.0, 187500.0, 187500.0, -87507.83950183864, 0.018000000000000002, -0.008, 0.982, 192.0, 0.0, 0.0, 0.0, 0.0, 0.0, 0.0, 0.0, 0.0, 0.0, 1.7172382339118285E9, 0.0, 2024-06-01 03:37:13.911
98.0, 187500.0, -26257.354170960687, 187500.0, 187500.0, 187500.0, 187500.0, 187500.0, -87516.78019962076, 0.018000000000000002, -0.008, 0.982, 192.0, 0.0, 0.0, 0.0, 0.0, 0.0, 0.0, 0.0, 0.0, 0.0, 1.7172382339118445E9, 0.0, 2024-06-01 03:37:13.911
99.0, 187500.0, -26252.43678718052, 187500.0, 187500.0, 187500.0, 187500.0, 187500.0, -87523.21750202388, 0.02, -0.006, 0.986, 192.0, 0.0, 160.0, 255.0, 208.0, 30.0, 208.0, 0.0, 0.0, 0.0, 1.7172382339118624E9, 0.0, 2024-06-01 03:37:13.911
100.0, 187500.0, -26238.869278296148, 187500.0, 187500.0, 187500.0, 187500.0, 187500.0, -87512.46631294087, 0.02, -0.006, 0.986, 192.0, 0.0, 0.0, 0.0, 0.0, 0.0, 0.0, 0.0, 0.0, 0.0, 1.7172382339118788E9, 0.0, 2024-06-01 03:37:13.911
101.0, 187500.0, -26254.895479070605, 187500.0, 187500.0, 187500.0, 187500.0, 187500.0, -87508.62181289456, 0.02, -0.006, 0.986, 192.0, 0.0, 0.0, 0.0, 0.0, 0.0, 0.0, 0.0, 0.0, 0.0, 1.7172382339118972E9, 0.0, 2024-06-01 03:37:13.911
102.0, 187500.0, -26262.651534396595, 187500.0, 187500.0, 187500.0, 187500.0, 187500.0, -87517.18253102095, 0.02, -0.006, 0.986, 192.0, 0.0, 0.0, 0.0, 0.0, 0.0, 0.0, 0.0, 0.0, 0.0, 1.7172382339119124E9, 0.0, 2024-06-01 03:37:13.911
103.0, 187500.0, -26253.48731916992, 187500.0, 187500.0, 187500.0, 187500.0, 187500.0, -87518.74715313282, 0.02, -0.006, 0.986, 192.0, 0.0, 0.0, 0.0, 0.0, 0.0, 0.0, 0.0, 0.0, 0.0, 1.7172382339119291E9, 0.0, 2024-06-01 03:37:13.911
104.0, 187500.0, -26251.63212438013, 187500.0, 187500.0, 187500.0, 187500.0, 187500.0, -87508.21948149437, 0.02, -0.006, 0.986, 192.0, 0.0, 0.0, 0.0, 0.0, 0.0, 0.0, 0.0, 0.0, 0.0, 1.7172382339119444E9, 0.0, 2024-06-01 03:37:13.911
105.0, 187500.0, -26252.66030462507, 187500.0, 187500.0, 187500.0, 187500.0, 187500.0, -87509.47117918386, 0.02, -0.006, 0.986, 192.0, 0.0, 0.0, 0.0, 0.0, 0.0, 0.0, 0.0, 0.0, 0.0, 1.7172382343905888E9, 0.0, 2024-06-01 03:37:14.390
106.0, 187500.0, -26259.187014006024, 187500.0, 187500.0, 187500.0, 187500.0, 187500.0, -87516.22140600937, 0.02, -0.006, 0.986, 192.0, 0.0, 0.0, 0.0, 0.0, 0.0, 0.0, 0.0, 0.0, 0.0, 1.7172382343906436E9, 0.0, 2024-06-01 03:37:14.390
107.0, 187500.0, -26251.922697058046, 187500.0, 187500.0, 187500.0, 187500.0, 187500.0, -87516.5119786873, 0.02, -0.006, 0.986, 192.0, 0.0, 0.0, 0.0, 0.0, 0.0, 0.0, 0.0, 0.0, 0.0, 1.7172382343906748E9, 0.0, 2024-06-01 03:37:14.390
108.0, 187500.0, -26244.68073185453, 187500.0, 187500.0, 187500.0, 187500.0, 187500.0, -87516.24375775382, 0.02, -0.006, 0.986, 192.0, 0.0, 0.0, 0.0, 0.0, 0.0, 0.0, 0.0, 0.0, 0.0, 1.7172382343907015E9, 0.0, 2024-06-01 03:37:14.390
109.0, 187500.0, -26247.2958859558, 187500.0, 187500.0, 187500.0, 187500.0, 187500.0, -87503.92794655895, 0.022, -0.008, 0.982, 192.0, 0.0, 176.0, 255.0, 192.0, 30.0, 176.0, 0.0, 0.0, 0.0, 1.7172382343907552E9, 0.0, 2024-06-01 03:37:14.390
110.0, 187500.0, -26260.394008206607, 187500.0, 187500.0, 187500.0, 187500.0, 187500.0, -87504.7549611038, 0.022, -0.008, 0.982, 192.0, 0.0, 0.0, 0.0, 0.0, 0.0, 0.0, 0.0, 0.0, 0.0, 1.7172382343907866E9, 0.0, 2024-06-01 03:37:14.390
111.0, 187500.0, -26259.410531450576, 187500.0, 187500.0, 187500.0, 187500.0, 187500.0, -87522.41283922349, 0.022, -0.008, 0.982, 192.0, 0.0, 0.0, 0.0, 0.0, 0.0, 0.0, 0.0, 0.0, 0.0, 1.717238234390814E9, 0.0, 2024-06-01 03:37:14.390
112.0, 187500.0, -26252.637952880617, 187500.0, 187500.0, 187500.0, 187500.0, 187500.0, -87528.33605150414, 0.022, -0.008, 0.982, 192.0, 0.0, 0.0, 0.0, 0.0, 0.0, 0.0, 0.0, 0.0, 0.0, 1.7172382343908415E9, 0.0, 2024-06-01 03:37:14.390
113.0, 187500.0, -26259.499938428395, 187500.0, 187500.0, 187500.0, 187500.0, 187500.0, -87515.37203972007, 0.022, -0.008, 0.982, 192.0, 0.0, 0.0, 0.0, 0.0, 0.0, 0.0, 0.0, 0.0, 0.0, 1.7172382343908548E9, 0.0, 2024-06-01 03:37:14.390
114.0, 187500.0, -26257.845909338703, 187500.0, 187500.0, 187500.0, 187500.0, 187500.0, -87503.65972562549, 0.022, -0.008, 0.982, 192.0, 0.0, 0.0, 0.0, 0.0, 0.0, 0.0, 0.0, 0.0, 0.0, 1.717238234390869E9, 0.0, 2024-06-01 03:37:14.390
115.0, 187500.0, -26258.762330861373, 187500.0, 187500.0, 187500.0, 187500.0, 187500.0, -87504.39733319251, 0.022, -0.008, 0.982, 192.0, 0.0, 0.0, 0.0, 0.0, 0.0, 0.0, 0.0, 0.0, 0.0, 1.7172382343908823E9, 0.0, 2024-06-01 03:37:14.390
116.0, 187500.0, -26251.788586591316, 187500.0, 187500.0, 187500.0, 187500.0, 187500.0, -87506.58780414914, 0.022, -0.008, 0.982, 192.0, 0.0, 0.0, 0.0, 0.0, 0.0, 0.0, 0.0, 0.0, 0.0, 1.717238234390896E9, 0.0, 2024-06-01 03:37:14.390
117.0, 187500.0, -26242.311446942265, 187500.0, 187500.0, 187500.0, 187500.0, 187500.0, -87496.26129821078, 0.022, -0.008, 0.982, 192.0, 0.0, 0.0, 0.0, 0.0, 0.0, 0.0, 0.0, 0.0, 0.0, 1.7172382343909097E9, 0.0, 2024-06-01 03:37:14.390
118.0, 187500.0, -26254.403740692585, 187500.0, 187500.0, 187500.0, 187500.0, 187500.0, -87498.94350754542, 0.022, -0.008, 0.982, 192.0, 0.0, 0.0, 0.0, 0.0, 0.0, 0.0, 0.0, 0.0, 0.0, 1.7172382343909233E9, 0.0, 2024-06-01 03:37:14.390
119.0, 187500.0, -26261.10926402918, 187500.0, 187500.0, 187500.0, 187500.0, 187500.0, -87509.44882743941, 0.022, -0.01, 0.984, 192.0, 0.0, 176.0, 255.0, 176.0, 30.0, 192.0, 0.0, 0.0, 0.0, 1.7172382343909395E9, 0.0, 2024-06-01 03:37:14.390
120.0, 187500.0, -26252.28032496933, 187500.0, 187500.0, 187500.0, 187500.0, 187500.0, -87516.154350776, 0.022, -0.01, 0.984, 192.0, 0.0, 0.0, 0.0, 0.0, 0.0, 0.0, 0.0, 0.0, 0.0, 1.7172382343909621E9, 0.0, 2024-06-01 03:37:14.390
121.0, 187500.0, -26235.561220116764, 187500.0, 187500.0, 187500.0, 187500.0, 187500.0, -87492.79677782021, 0.022, -0.01, 0.984, 192.0, 0.0, 0.0, 0.0, 0.0, 0.0, 0.0, 0.0, 0.0, 0.0, 1.7172382343909845E9, 0.0, 2024-06-01 03:37:14.390
122.0, 187500.0, -26246.804147577783, 187500.0, 187500.0, 187500.0, 187500.0, 187500.0, -87487.67822833994, 0.022, -0.01, 0.984, 192.0, 0.0, 0.0, 0.0, 0.0, 0.0, 0.0, 0.0, 0.0, 0.0, 1.7172382343910017E9, 0.0, 2024-06-01 03:37:14.391
123.0, 187500.0, -26256.303638971287, 187500.0, 187500.0, 187500.0, 187500.0, 187500.0, -87496.03778076623, 0.022, -0.01, 0.984, 192.0, 0.0, 0.0, 0.0, 0.0, 0.0, 0.0, 0.0, 0.0, 0.0, 1.717238234391015E9, 0.0, 2024-06-01 03:37:14.391
124.0, 187500.0, -26249.709874356973, 187500.0, 187500.0, 187500.0, 187500.0, 187500.0, -87503.99500179231, 0.022, -0.01, 0.984, 192.0, 0.0, 0.0, 0.0, 0.0, 0.0, 0.0, 0.0, 0.0, 0.0, 1.7172382343910627E9, 0.0, 2024-06-01 03:37:14.391
125.0, 187500.0, -26250.603944135186, 187500.0, 187500.0, 187500.0, 187500.0, 187500.0, -87503.34680120311, 0.022, -0.01, 0.984, 192.0, 0.0, 0.0, 0.0, 0.0, 0.0, 0.0, 0.0, 0.0, 0.0, 1.717238234391076E9, 0.0, 2024-06-01 03:37:14.391
126.0, 187500.0, -26251.05097902429, 187500.0, 187500.0, 187500.0, 187500.0, 187500.0, -87496.17189123297, 0.022, -0.01, 0.984, 192.0, 0.0, 0.0, 0.0, 0.0, 0.0, 0.0, 0.0, 0.0, 0.0, 1.7172382343910892E9, 0.0, 2024-06-01 03:37:14.391
127.0, 187500.0, -26256.52715641584, 187500.0, 187500.0, 187500.0, 187500.0, 187500.0, -87504.39733319251, 0.022, -0.01, 0.984, 192.0, 0.0, 0.0, 0.0, 0.0, 0.0, 0.0, 0.0, 0.0, 0.0, 1.7172382343911023E9, 0.0, 2024-06-01 03:37:14.391
128.0, 187500.0, -26250.894516813103, 187500.0, 187500.0, 187500.0, 187500.0, 187500.0, -87512.98040306335, 0.022, -0.01, 0.984, 192.0, 0.0, 0.0, 0.0, 0.0, 0.0, 0.0, 0.0, 0.0, 0.0, 1.7172382343911154E9, 0.0, 2024-06-01 03:37:14.391
129.0, 187500.0, -26248.01114177837, 187500.0, 187500.0, 187500.0, 187500.0, 187500.0, -87515.59555716462, 0.022, -0.012, 0.984, 192.0, 0.0, 176.0, 255.0, 160.0, 30.0, 192.0, 0.0, 0.0, 0.0, 1.71723823439113E9, 0.0, 2024-06-01 03:37:14.391
130.0, 187500.0, -26253.71083661447, 187500.0, 187500.0, 187500.0, 187500.0, 187500.0, -87503.27974596975, 0.022, -0.012, 0.984, 192.0, 0.0, 0.0, 0.0, 0.0, 0.0, 0.0, 0.0, 0.0, 0.0, 1.717238234391144E9, 0.0, 2024-06-01 03:37:14.391
131.0, 187500.0, -26262.76329311887, 187500.0, 187500.0, 187500.0, 187500.0, 187500.0, -87498.0494377672, 0.022, -0.012, 0.984, 192.0, 0.0, 0.0, 0.0, 0.0, 0.0, 0.0, 0.0, 0.0, 0.0, 1.7172382343911576E9, 0.0, 2024-06-01 03:37:14.391
132.0, 187500.0, -26257.644743638604, 187500.0, 187500.0, 187500.0, 187500.0, 187500.0, -87501.31279245768, 0.022, -0.012, 0.984, 192.0, 0.0, 0.0, 0.0, 0.0, 0.0, 0.0, 0.0, 0.0, 0.0, 1.717238234391171E9, 0.0, 2024-06-01 03:37:14.391
133.0, 187500.0, -26233.840135793704, 187500.0, 187500.0, 187500.0, 187500.0, 187500.0, -87491.12039698607, 0.022, -0.012, 0.984, 192.0, 0.0, 0.0, 0.0, 0.0, 0.0, 0.0, 0.0, 0.0, 0.0, 1.717238234391184E9, 0.0, 2024-06-01 03:37:14.391
134.0, 187500.0, -26243.451385909488, 187500.0, 187500.0, 187500.0, 187500.0, 187500.0, -87499.18937673443, 0.022, -0.012, 0.984, 192.0, 0.0, 0.0, 0.0, 0.0, 0.0, 0.0, 0.0, 0.0, 0.0, 1.7172382343911972E9, 0.0, 2024-06-01 03:37:14.391
135.0, 187500.0, -26252.548545902795, 187500.0, 187500.0, 187500.0, 187500.0, 187500.0, -87490.15927197448, 0.022, -0.012, 0.984, 192.0, 0.0, 0.0, 0.0, 0.0, 0.0, 0.0, 0.0, 0.0, 0.0, 1.7172382343912103E9, 0.0, 2024-06-01 03:37:14.391
136.0, 187500.0, -26252.950877302992, 187500.0, 187500.0, 187500.0, 187500.0, 187500.0, -87500.08344651264, 0.022, -0.012, 0.984, 192.0, 0.0, 0.0, 0.0, 0.0, 0.0, 0.0, 0.0, 0.0, 0.0, 1.7172382343912232E9, 0.0, 2024-06-01 03:37:14.391
137.0, 187500.0, -26243.138461487113, 187500.0, 187500.0, 187500.0, 187500.0, 187500.0, -87507.01248729379, 0.022, -0.012, 0.984, 192.0, 0.0, 0.0, 0.0, 0.0, 0.0, 0.0, 0.0, 0.0, 0.0, 1.7172382343912365E9, 0.0, 2024-06-01 03:37:14.391
138.0, 187500.0, -26247.921734800548, 187500.0, 187500.0, 187500.0, 187500.0, 187500.0, -87513.98623156385, 0.022, -0.012, 0.984, 192.0, 0.0, 0.0, 0.0, 0.0, 0.0, 0.0, 0.0, 0.0, 0.0, 1.7172382343912497E9, 0.0, 2024-06-01 03:37:14.391
139.0, 187500.0, -26257.220060493953, 187500.0, 187500.0, 187500.0, 187500.0, 187500.0, -87512.04162979622, 0.028, -0.012, 0.986, 192.0, 0.0, 224.0, 255.0, 160.0, 30.0, 208.0, 0.0, 0.0, 0.0, 1.7172382343912733E9, 0.0, 2024-06-01 03:37:14.391
140.0, 187500.0, -26262.025685551846, 187500.0, 187500.0, 187500.0, 187500.0, 187500.0, -87515.81907460917, 0.028, -0.012, 0.986, 192.0, 0.0, 0.0, 0.0, 0.0, 0.0, 0.0, 0.0, 0.0, 0.0, 1.717238234391287E9, 0.0, 2024-06-01 03:37:14.391
141.0, 187500.0, -26248.033493522824, 187500.0, 187500.0, 187500.0, 187500.0, 187500.0, -87513.78506586375, 0.028, -0.012, 0.986, 192.0, 0.0, 0.0, 0.0, 0.0, 0.0, 0.0, 0.0, 0.0, 0.0, 1.7172382343913E9, 0.0, 2024-06-01 03:37:14.391
142.0, 187500.0, -26242.534964386818, 187500.0, 187500.0, 187500.0, 187500.0, 187500.0, -87499.7481703458, 0.028, -0.012, 0.986, 192.0, 0.0, 0.0, 0.0, 0.0, 0.0, 0.0, 0.0, 0.0, 0.0, 1.717238234391313E9, 0.0, 2024-06-01 03:37:14.391
143.0, 187500.0, -26248.704045856484, 187500.0, 187500.0, 187500.0, 187500.0, 187500.0, -87482.47027188186, 0.028, -0.012, 0.986, 192.0, 0.0, 0.0, 0.0, 0.0, 0.0, 0.0, 0.0, 0.0, 0.0, 1.717238234391326E9, 0.0, 2024-06-01 03:37:14.391
144.0, 187500.0, -26254.046112781303, 187500.0, 187500.0, 187500.0, 187500.0, 187500.0, -87491.47802489734, 0.028, -0.012, 0.986, 192.0, 0.0, 0.0, 0.0, 0.0, 0.0, 0.0, 0.0, 0.0, 0.0, 1.7172382343913393E9, 0.0, 2024-06-01 03:37:14.391
145.0, 187500.0, -26249.419301679052, 187500.0, 187500.0, 187500.0, 187500.0, 187500.0, -87505.8501965821, 0.028, -0.012, 0.986, 192.0, 0.0, 0.0, 0.0, 0.0, 0.0, 0.0, 0.0, 0.0, 0.0, 1.7172382343913522E9, 0.0, 2024-06-01 03:37:14.391
146.0, 187500.0, -26237.215249206456, 187500.0, 187500.0, 187500.0, 187500.0, 187500.0, -87499.92698430145, 0.028, -0.012, 0.986, 192.0, 0.0, 0.0, 0.0, 0.0, 0.0, 0.0, 0.0, 0.0, 0.0, 1.7172382343913653E9, 0.0, 2024-06-01 03:37:14.391
147.0, 187500.0, -26246.15594698858, 187500.0, 187500.0, 187500.0, 187500.0, 187500.0, -87495.3001731992, 0.028, -0.012, 0.986, 192.0, 0.0, 0.0, 0.0, 0.0, 0.0, 0.0, 0.0, 0.0, 0.0, 1.7172382343913782E9, 0.0, 2024-06-01 03:37:14.391
148.0, 187500.0, -26246.223002221945, 187500.0, 187500.0, 187500.0, 187500.0, 187500.0, -87505.82784483765, 0.028, -0.012, 0.986, 192.0, 0.0, 0.0, 0.0, 0.0, 0.0, 0.0, 0.0, 0.0, 0.0, 1.7172382343913915E9, 0.0, 2024-06-01 03:37:14.391
149.0, 187500.0, -26233.549563115786, 187500.0, 187500.0, 187500.0, 187500.0, 187500.0, -87502.2515657248, 0.028, -0.006, 0.986, 192.0, 0.0, 224.0, 255.0, 208.0, 30.0, 208.0, 0.0, 0.0, 0.0, 1.7172382343914049E9, 0.0, 2024-06-01 03:37:14.391
150.0, 187500.0, -26230.46502238095, 187500.0, 187500.0, 187500.0, 187500.0, 187500.0, -87497.31183020018, 0.028, -0.006, 0.986, 192.0, 0.0, 0.0, 0.0, 0.0, 0.0, 0.0, 0.0, 0.0, 0.0, 1.7172382343914185E9, 0.0, 2024-06-01 03:37:14.391
151.0, 187500.0, -26242.937295787015, 187500.0, 187500.0, 187500.0, 187500.0, 187500.0, -87497.89297555602, 0.028, -0.006, 0.986, 192.0, 0.0, 0.0, 0.0, 0.0, 0.0, 0.0, 0.0, 0.0, 0.0, 1.7172382343914313E9, 0.0, 2024-06-01 03:37:14.391
152.0, 187500.0, -26245.03835976581, 187500.0, 187500.0, 187500.0, 187500.0, 187500.0, -87493.57908887614, 0.028, -0.006, 0.986, 192.0, 0.0, 0.0, 0.0, 0.0, 0.0, 0.0, 0.0, 0.0, 0.0, 1.7172382343914447E9, 0.0, 2024-06-01 03:37:14.391
153.0, 187500.0, -26245.217173721456, 187500.0, 187500.0, 187500.0, 187500.0, 187500.0, -87495.47898715484, 0.028, -0.006, 0.986, 192.0, 0.0, 0.0, 0.0, 0.0, 0.0, 0.0, 0.0, 0.0, 0.0, 1.7172382343914576E9, 0.0, 2024-06-01 03:37:14.391
154.0, 187500.0, -26229.190972947, 187500.0, 187500.0, 187500.0, 187500.0, 187500.0, -87490.42749290794, 0.028, -0.006, 0.986, 192.0, 0.0, 0.0, 0.0, 0.0, 0.0, 0.0, 0.0, 0.0, 0.0, 1.7172382343914857E9, 0.0, 2024-06-01 03:37:14.391
155.0, 187500.0, -26231.582609603716, 187500.0, 187500.0, 187500.0, 187500.0, 187500.0, -87478.4469578799, 0.028, -0.006, 0.986, 192.0, 0.0, 0.0, 0.0, 0.0, 0.0, 0.0, 0.0, 0.0, 0.0, 1.7172382343914988E9, 0.0, 2024-06-01 03:37:14.391
156.0, 187500.0, -26246.267705710856, 187500.0, 187500.0, 187500.0, 187500.0, 187500.0, -87477.26231542377, 0.028, -0.006, 0.986, 192.0, 0.0, 0.0, 0.0, 0.0, 0.0, 0.0, 0.0, 0.0, 0.0, 1.7172382343915117E9, 0.0, 2024-06-01 03:37:14.391
157.0, 187500.0, -26241.260914952865, 187500.0, 187500.0, 187500.0, 187500.0, 187500.0, -87494.76373133228, 0.028, -0.006, 0.986, 192.0, 0.0, 0.0, 0.0, 0.0, 0.0, 0.0, 0.0, 0.0, 0.0, 1.7172382343915248E9, 0.0, 2024-06-01 03:37:14.391
158.0, 187500.0, -26237.192897462, 187500.0, 187500.0, 187500.0, 187500.0, 187500.0, -87505.71608611538, 0.028, -0.006, 0.986, 192.0, 0.0, 0.0, 0.0, 0.0, 0.0, 0.0, 0.0, 0.0, 0.0, 1.717238234391538E9, 0.0, 2024-06-01 03:37:14.391
159.0, 187500.0, -26243.451385909488, 187500.0, 187500.0, 187500.0, 187500.0, 187500.0, -87497.75886508929, 0.022, 0.0, 0.982, 192.0, 0.0, 176.0, 0.0, 0.0, 30.0, 176.0, 0.0, 0.0, 0.0, 1.7172382343915508E9, 0.0, 2024-06-01 03:37:14.391
160.0, 187500.0, -26247.89938305609, 187500.0, 187500.0, 187500.0, 187500.0, 187500.0, -87489.84634755211, 0.022, 0.0, 0.982, 192.0, 0.0, 0.0, 0.0, 0.0, 0.0, 0.0, 0.0, 0.0, 0.0, 1.7172382343915641E9, 0.0, 2024-06-01 03:37:14.391
161.0, 187500.0, -26240.232734707923, 187500.0, 187500.0, 187500.0, 187500.0, 187500.0, -87497.06596101118, 0.022, 0.0, 0.982, 192.0, 0.0, 0.0, 0.0, 0.0, 0.0, 0.0, 0.0, 0.0, 0.0, 1.7172382343915772E9, 0.0, 2024-06-01 03:37:14.391
162.0, 187500.0, -26230.95676075897, 187500.0, 187500.0, 187500.0, 187500.0, 187500.0, -87495.9483737884, 0.022, 0.0, 0.982, 192.0, 0.0, 0.0, 0.0, 0.0, 0.0, 0.0, 0.0, 0.0, 0.0, 1.71723823439159E9, 0.0, 2024-06-01 03:37:14.391
163.0, 187500.0, -26236.410586406066, 187500.0, 187500.0, 187500.0, 187500.0, 187500.0, -87490.22632720784, 0.022, 0.0, 0.982, 192.0, 0.0, 0.0, 0.0, 0.0, 0.0, 0.0, 0.0, 0.0, 0.0, 1.7172382343916032E9, 0.0, 2024-06-01 03:37:14.391
164.0, 187500.0, -26249.464005167963, 187500.0, 187500.0, 187500.0, 187500.0, 187500.0, -87492.77442607576, 0.022, 0.0, 0.982, 192.0, 0.0, 0.0, 0.0, 0.0, 0.0, 0.0, 0.0, 0.0, 0.0, 1.717238234391616E9, 0.0, 2024-06-01 03:37:14.391
165.0, 187500.0, -26250.134557501624, 187500.0, 187500.0, 187500.0, 187500.0, 187500.0, -87499.18937673443, 0.022, 0.0, 0.982, 192.0, 0.0, 0.0, 0.0, 0.0, 0.0, 0.0, 0.0, 0.0, 0.0, 1.7172382343916292E9, 0.0, 2024-06-01 03:37:14.391
166.0, 187500.0, -26239.0927957407, 187500.0, 187500.0, 187500.0, 187500.0, 187500.0, -87495.56839413267, 0.022, 0.0, 0.982, 192.0, 0.0, 0.0, 0.0, 0.0, 0.0, 0.0, 0.0, 0.0, 0.0, 1.717238234391642E9, 0.0, 2024-06-01 03:37:14.391
167.0, 187500.0, -26231.403795648075, 187500.0, 187500.0, 187500.0, 187500.0, 187500.0, -87484.81720504967, 0.022, 0.0, 0.982, 192.0, 0.0, 0.0, 0.0, 0.0, 0.0, 0.0, 0.0, 0.0, 0.0, 1.7172382343916547E9, 0.0, 2024-06-01 03:37:14.391
168.0, 187500.0, -26247.228830722433, 187500.0, 187500.0, 187500.0, 187500.0, 187500.0, -87476.01061773427, 0.022, 0.0, 0.982, 192.0, 0.0, 0.0, 0.0, 0.0, 0.0, 0.0, 0.0, 0.0, 0.0, 1.717238234391668E9, 0.0, 2024-06-01 03:37:14.391
169.0, 187500.0, -26255.38721744862, 187500.0, 187500.0, 187500.0, 187500.0, 187500.0, -87501.71512385788, 0.02, -0.004, 0.982, 192.0, 0.0, 160.0, 255.0, 224.0, 30.0, 176.0, 0.0, 0.0, 0.0, 1.7172382343916898E9, 0.0, 2024-06-01 03:37:14.391
170.0, 187500.0, -26245.91007779957, 187500.0, 187500.0, 187500.0, 187500.0, 187500.0, -87512.9580513189, 0.02, -0.004, 0.982, 192.0, 0.0, 0.0, 0.0, 0.0, 0.0, 0.0, 0.0, 0.0, 0.0, 1.7172382343917036E9, 0.0, 2024-06-01 03:37:14.391
171.0, 187500.0, -26231.247333436888, 187500.0, 187500.0, 187500.0, 187500.0, 187500.0, -87500.12815000155, 0.02, -0.004, 0.982, 192.0, 0.0, 0.0, 0.0, 0.0, 0.0, 0.0, 0.0, 0.0, 0.0, 1.7172382343917172E9, 0.0, 2024-06-01 03:37:14.391
172.0, 187500.0, -26240.43390040802, 187500.0, 187500.0, 187500.0, 187500.0, 187500.0, -87495.0990074991, 0.02, -0.004, 0.982, 192.0, 0.0, 0.0, 0.0, 0.0, 0.0, 0.0, 0.0, 0.0, 0.0, 1.7172382343917303E9, 0.0, 2024-06-01 03:37:14.391
173.0, 187500.0, -26249.732226101427, 187500.0, 187500.0, 187500.0, 187500.0, 187500.0, -87497.04360926672, 0.02, -0.004, 0.982, 192.0, 0.0, 0.0, 0.0, 0.0, 0.0, 0.0, 0.0, 0.0, 0.0, 1.7172382343917432E9, 0.0, 2024-06-01 03:37:14.391
174.0, 187500.0, -26251.922697058046, 187500.0, 187500.0, 187500.0, 187500.0, 187500.0, -87503.88324307004, 0.02, -0.004, 0.982, 192.0, 0.0, 0.0, 0.0, 0.0, 0.0, 0.0, 0.0, 0.0, 0.0, 1.7172382343917563E9, 0.0, 2024-06-01 03:37:14.391
175.0, 187500.0, -26248.94991504549, 187500.0, 187500.0, 187500.0, 187500.0, 187500.0, -87505.2019959929, 0.02, -0.004, 0.982, 192.0, 0.0, 0.0, 0.0, 0.0, 0.0, 0.0, 0.0, 0.0, 0.0, 1.7172382343917696E9, 0.0, 2024-06-01 03:37:14.391
176.0, 187500.0, -26247.407644678075, 187500.0, 187500.0, 187500.0, 187500.0, 187500.0, -87494.07082725417, 0.02, -0.004, 0.982, 192.0, 0.0, 0.0, 0.0, 0.0, 0.0, 0.0, 0.0, 0.0, 0.0, 1.7172382343917823E9, 0.0, 2024-06-01 03:37:14.391
177.0, 187500.0, -26252.079159269233, 187500.0, 187500.0, 187500.0, 187500.0, 187500.0, -87488.57229811816, 0.02, -0.004, 0.982, 192.0, 0.0, 0.0, 0.0, 0.0, 0.0, 0.0, 0.0, 0.0, 0.0, 1.7172382343917956E9, 0.0, 2024-06-01 03:37:14.391
178.0, 187500.0, -26237.796394562294, 187500.0, 187500.0, 187500.0, 187500.0, 187500.0, -87475.60828633407, 0.02, -0.004, 0.982, 192.0, 0.0, 0.0, 0.0, 0.0, 0.0, 0.0, 0.0, 0.0, 0.0, 1.7172382343918085E9, 0.0, 2024-06-01 03:37:14.391
179.0, 187500.0, -26228.63217933562, 187500.0, 187500.0, 187500.0, 187500.0, 187500.0, -87477.30701891269, 0.018000000000000002, 0.004, 0.978, 192.0, 0.0, 144.0, 0.0, 32.0, 30.0, 144.0, 0.0, 0.0, 0.0, 1.7172382343918216E9, 0.0, 2024-06-01 03:37:14.391
180.0, 187500.0, -26233.81778404925, 187500.0, 187500.0, 187500.0, 187500.0, 187500.0, -87483.23023119333, 0.018000000000000002, 0.004, 0.978, 192.0, 0.0, 0.0, 0.0, 0.0, 0.0, 0.0, 0.0, 0.0, 0.0, 1.7172382343918352E9, 0.0, 2024-06-01 03:37:14.391
181.0, 187500.0, -26238.355188173675, 187500.0, 187500.0, 187500.0, 187500.0, 187500.0, -87488.16996671796, 0.018000000000000002, 0.004, 0.978, 192.0, 0.0, 0.0, 0.0, 0.0, 0.0, 0.0, 0.0, 0.0, 0.0, 1.7172382343918483E9, 0.0, 2024-06-01 03:37:14.391
182.0, 187500.0, -26244.166641732056, 187500.0, 187500.0, 187500.0, 187500.0, 187500.0, -87491.99211501982, 0.018000000000000002, 0.004, 0.978, 192.0, 0.0, 0.0, 0.0, 0.0, 0.0, 0.0, 0.0, 0.0, 0.0, 1.7172382343918612E9, 0.0, 2024-06-01 03:37:14.391
183.0, 187500.0, -26250.469833668452, 187500.0, 187500.0, 187500.0, 187500.0, 187500.0, -87493.53438538723, 0.018000000000000002, 0.004, 0.978, 192.0, 0.0, 0.0, 0.0, 0.0, 0.0, 0.0, 0.0, 0.0, 0.0, 1.7172382343918743E9, 0.0, 2024-06-01 03:37:14.391
184.0, 187500.0, -26236.209420705967, 187500.0, 187500.0, 187500.0, 187500.0, 187500.0, -87483.09612072661, 0.018000000000000002, 0.004, 0.978, 192.0, 0.0, 0.0, 0.0, 0.0, 0.0, 0.0, 0.0, 0.0, 0.0, 1.7172382343918953E9, 0.0, 2024-06-01 03:37:14.391
185.0, 187500.0, -26236.768214317348, 187500.0, 187500.0, 187500.0, 187500.0, 187500.0, -87467.42754786344, 0.018000000000000002, 0.004, 0.978, 192.0, 0.0, 0.0, 0.0, 0.0, 0.0, 0.0, 0.0, 0.0, 0.0, 1.7172382343919084E9, 0.0, 2024-06-01 03:37:14.391
186.0, 187500.0, -26238.310484684764, 187500.0, 187500.0, 187500.0, 187500.0, 187500.0, -87477.03879797921, 0.018000000000000002, 0.004, 0.978, 192.0, 0.0, 0.0, 0.0, 0.0, 0.0, 0.0, 0.0, 0.0, 0.0, 1.7172382343919213E9, 0.0, 2024-06-01 03:37:14.391
187.0, 187500.0, -26233.862487538157, 187500.0, 187500.0, 187500.0, 187500.0, 187500.0, -87484.63839109402, 0.018000000000000002, 0.004, 0.978, 192.0, 0.0, 0.0, 0.0, 0.0, 0.0, 0.0, 0.0, 0.0, 0.0, 1.7172382343919358E9, 0.0, 2024-06-01 03:37:14.391
188.0, 187500.0, -26230.0403392363, 187500.0, 187500.0, 187500.0, 187500.0, 187500.0, -87471.96495198786, 0.02, -0.002, 0.98, 192.0, 0.0, 160.0, 255.0, 240.0, 30.0, 160.0, 0.0, 0.0, 0.0, 1.7172382343919573E9, 0.0, 2024-06-01 03:37:14.391
189.0, 187500.0, -26236.298827683786, 187500.0, 187500.0, 187500.0, 187500.0, 187500.0, -87455.71523376886, 0.02, -0.002, 0.98, 192.0, 0.0, 0.0, 0.0, 0.0, 0.0, 0.0, 0.0, 0.0, 0.0, 1.7172382343919716E9, 0.0, 2024-06-01 03:37:14.391
190.0, 187500.0, -26235.62827535013, 187500.0, 187500.0, 187500.0, 187500.0, 187500.0, -87461.77255651624, 0.02, -0.002, 0.98, 192.0, 0.0, 0.0, 0.0, 0.0, 0.0, 0.0, 0.0, 0.0, 0.0, 1.7172382343919847E9, 0.0, 2024-06-01 03:37:14.391
191.0, 187500.0, -26222.641911821596, 187500.0, 187500.0, 187500.0, 187500.0, 187500.0, -87475.02714097824, 0.02, -0.002, 0.98, 192.0, 0.0, 0.0, 0.0, 0.0, 0.0, 0.0, 0.0, 0.0, 0.0, 1.7172382343919978E9, 0.0, 2024-06-01 03:37:14.391
192.0, 187500.0, -26218.439783863996, 187500.0, 187500.0, 187500.0, 187500.0, 187500.0, -87457.21280064736, 0.02, -0.002, 0.98, 192.0, 0.0, 0.0, 0.0, 0.0, 0.0, 0.0, 0.0, 0.0, 0.0, 1.7172382343920107E9, 0.0, 2024-06-01 03:37:14.392
193.0, 187500.0, -26224.675920567028, 187500.0, 187500.0, 187500.0, 187500.0, 187500.0, -87448.9426551989, 0.02, -0.002, 0.98, 192.0, 0.0, 0.0, 0.0, 0.0, 0.0, 0.0, 0.0, 0.0, 0.0, 1.7172382343920238E9, 0.0, 2024-06-01 03:37:14.392
194.0, 187500.0, -26233.549563115786, 187500.0, 187500.0, 187500.0, 187500.0, 187500.0, -87454.73175701282, 0.02, -0.002, 0.98, 192.0, 0.0, 0.0, 0.0, 0.0, 0.0, 0.0, 0.0, 0.0, 0.0, 1.717238234392037E9, 0.0, 2024-06-01 03:37:14.392
195.0, 187500.0, -26230.755595058872, 187500.0, 187500.0, 187500.0, 187500.0, 187500.0, -87466.60053331859, 0.02, -0.002, 0.98, 192.0, 0.0, 0.0, 0.0, 0.0, 0.0, 0.0, 0.0, 0.0, 0.0, 1.71723823439205E9, 0.0, 2024-06-01 03:37:14.392
196.0, 187500.0, -26226.061728723256, 187500.0, 187500.0, 187500.0, 187500.0, 187500.0, -87459.44797509289, 0.02, -0.002, 0.98, 192.0, 0.0, 0.0, 0.0, 0.0, 0.0, 0.0, 0.0, 0.0, 0.0, 1.7172382343920631E9, 0.0, 2024-06-01 03:37:14.392
197.0, 187500.0, -26236.075310239234, 187500.0, 187500.0, 187500.0, 187500.0, 187500.0, -87453.01067268976, 0.02, -0.002, 0.98, 192.0, 0.0, 0.0, 0.0, 0.0, 0.0, 0.0, 0.0, 0.0, 0.0, 1.717238234392076E9, 0.0, 2024-06-01 03:37:14.392
198.0, 187500.0, -26246.11124349967, 187500.0, 187500.0, 187500.0, 187500.0, 187500.0, -87459.33621637062, 0.018000000000000002, -0.004, 0.98, 192.0, 0.0, 144.0, 255.0, 224.0, 30.0, 160.0, 0.0, 0.0, 0.0, 1.717238234392089E9, 0.0, 2024-06-01 03:37:14.392
199.0, 187500.0, -26236.43293815052, 187500.0, 187500.0, 187500.0, 187500.0, 187500.0, -87458.71036752587, 0.018000000000000002, -0.004, 0.98, 192.0, 0.0, 0.0, 0.0, 0.0, 0.0, 0.0, 0.0, 0.0, 0.0, 1.717238234392113E9, 0.0, 2024-06-01 03:37:14.392
200.0, 187500.0, -26222.86542926615, 187500.0, 187500.0, 187500.0, 187500.0, 187500.0, -87453.68122502342, 0.018000000000000002, -0.004, 0.98, 192.0, 0.0, 0.0, 0.0, 0.0, 0.0, 0.0, 0.0, 0.0, 0.0, 1.7172382343921263E9, 0.0, 2024-06-01 03:37:14.392
201.0, 187500.0, -26235.740034072405, 187500.0, 187500.0, 187500.0, 187500.0, 187500.0, -87469.52861184224, 0.018000000000000002, -0.004, 0.98, 192.0, 0.0, 0.0, 0.0, 0.0, 0.0, 0.0, 0.0, 0.0, 0.0, 1.7172382343921392E9, 0.0, 2024-06-01 03:37:14.392
202.0, 187500.0, -26242.400853920088, 187500.0, 187500.0, 187500.0, 187500.0, 187500.0, -87464.9465042289, 0.018000000000000002, -0.004, 0.98, 192.0, 0.0, 0.0, 0.0, 0.0, 0.0, 0.0, 0.0, 0.0, 0.0, 1.7172382343921528E9, 0.0, 2024-06-01 03:37:14.392
203.0, 187500.0, -26229.839173536206, 187500.0, 187500.0, 187500.0, 187500.0, 187500.0, -87471.83084152114, 0.018000000000000002, -0.004, 0.98, 192.0, 0.0, 0.0, 0.0, 0.0, 0.0, 0.0, 0.0, 0.0, 0.0, 1.717238234392166E9, 0.0, 2024-06-01 03:37:14.392
204.0, 187500.0, -26222.776022288326, 187500.0, 187500.0, 187500.0, 187500.0, 187500.0, -87468.61219031956, 0.018000000000000002, -0.004, 0.98, 192.0, 0.0, 0.0, 0.0, 0.0, 0.0, 0.0, 0.0, 0.0, 0.0, 1.717238234392179E9, 0.0, 2024-06-01 03:37:14.392
205.0, 187500.0, -26219.065632708745, 187500.0, 187500.0, 187500.0, 187500.0, 187500.0, -87457.5927803031, 0.018000000000000002, -0.004, 0.98, 192.0, 0.0, 0.0, 0.0, 0.0, 0.0, 0.0, 0.0, 0.0, 0.0, 1.717238234392192E9, 0.0, 2024-06-01 03:37:14.392
206.0, 187500.0, -26228.453365379974, 187500.0, 187500.0, 187500.0, 187500.0, 187500.0, -87450.66373952196, 0.018000000000000002, -0.004, 0.98, 192.0, 0.0, 0.0, 0.0, 0.0, 0.0, 0.0, 0.0, 0.0, 0.0, 1.7172382343922057E9, 0.0, 2024-06-01 03:37:14.392
207.0, 187500.0, -26235.024778249834, 187500.0, 187500.0, 187500.0, 187500.0, 187500.0, -87455.96110295787, 0.018000000000000002, -0.004, 0.98, 192.0, 0.0, 0.0, 0.0, 0.0, 0.0, 0.0, 0.0, 0.0, 0.0, 1.7172382343922184E9, 0.0, 2024-06-01 03:37:14.392
208.0, 187500.0, -26236.924676528535, 187500.0, 187500.0, 187500.0, 187500.0, 187500.0, -87467.78517577473, 0.014, -0.006, 0.98, 192.0, 0.0, 112.0, 255.0, 208.0, 30.0, 160.0, 0.0, 0.0, 0.0, 1.7172382343922315E9, 0.0, 2024-06-01 03:37:14.392
209.0, 187500.0, -26236.365882917155, 187500.0, 187500.0, 187500.0, 187500.0, 187500.0, -87463.15836467248, 0.014, -0.006, 0.98, 192.0, 0.0, 0.0, 0.0, 0.0, 0.0, 0.0, 0.0, 0.0, 0.0, 1.717238234392245E9, 0.0, 2024-06-01 03:37:14.392
210.0, 187500.0, -26232.297865426288, 187500.0, 187500.0, 187500.0, 187500.0, 187500.0, -87457.23515239182, 0.014, -0.006, 0.98, 192.0, 0.0, 0.0, 0.0, 0.0, 0.0, 0.0, 0.0, 0.0, 0.0, 1.717238234392258E9, 0.0, 2024-06-01 03:37:14.392
211.0, 187500.0, -26233.504859626875, 187500.0, 187500.0, 187500.0, 187500.0, 187500.0, -87470.28857115371, 0.014, -0.006, 0.98, 192.0, 0.0, 0.0, 0.0, 0.0, 0.0, 0.0, 0.0, 0.0, 0.0, 1.717238234392271E9, 0.0, 2024-06-01 03:37:14.392
212.0, 187500.0, -26220.719661798437, 187500.0, 187500.0, 187500.0, 187500.0, 187500.0, -87456.78811750271, 0.014, -0.006, 0.98, 192.0, 0.0, 0.0, 0.0, 0.0, 0.0, 0.0, 0.0, 0.0, 0.0, 1.7172382343922842E9, 0.0, 2024-06-01 03:37:14.392
213.0, 187500.0, -26219.535019342307, 187500.0, 187500.0, 187500.0, 187500.0, 187500.0, -87454.93292271292, 0.014, -0.006, 0.98, 192.0, 0.0, 0.0, 0.0, 0.0, 0.0, 0.0, 0.0, 0.0, 0.0, 1.7172382343922973E9, 0.0, 2024-06-01 03:37:14.392
214.0, 187500.0, -26228.90040026908, 187500.0, 187500.0, 187500.0, 187500.0, 187500.0, -87457.74924251428, 0.014, -0.006, 0.98, 192.0, 0.0, 0.0, 0.0, 0.0, 0.0, 0.0, 0.0, 0.0, 0.0, 1.7172382343923185E9, 0.0, 2024-06-01 03:37:14.392
215.0, 187500.0, -26232.923714271037, 187500.0, 187500.0, 187500.0, 187500.0, 187500.0, -87465.1923734179, 0.014, -0.006, 0.98, 192.0, 0.0, 0.0, 0.0, 0.0, 0.0, 0.0, 0.0, 0.0, 0.0, 1.7172382343923316E9, 0.0, 2024-06-01 03:37:14.392
216.0, 187500.0, -26232.364920659653, 187500.0, 187500.0, 187500.0, 187500.0, 187500.0, -87473.01548397726, 0.014, -0.006, 0.98, 192.0, 0.0, 0.0, 0.0, 0.0, 0.0, 0.0, 0.0, 0.0, 0.0, 1.7172382343923447E9, 0.0, 2024-06-01 03:37:14.392
217.0, 187500.0, -26222.686615310507, 187500.0, 187500.0, 187500.0, 187500.0, 187500.0, -87460.43145184893, 0.014, -0.006, 0.98, 192.0, 0.0, 0.0, 0.0, 0.0, 0.0, 0.0, 0.0, 0.0, 0.0, 1.7172382343923576E9, 0.0, 2024-06-01 03:37:14.392
218.0, 187500.0, -26226.75463280137, 187500.0, 187500.0, 187500.0, 187500.0, 187500.0, -87447.0427569202, 0.02, -0.01, 0.978, 192.0, 0.0, 160.0, 255.0, 176.0, 30.0, 144.0, 0.0, 0.0, 0.0, 1.7172382343923707E9, 0.0, 2024-06-01 03:37:14.392
219.0, 187500.0, -26240.925638786037, 187500.0, 187500.0, 187500.0, 187500.0, 187500.0, -87453.34594885659, 0.02, -0.01, 0.978, 192.0, 0.0, 0.0, 0.0, 0.0, 0.0, 0.0, 0.0, 0.0, 0.0, 1.7172382343923843E9, 0.0, 2024-06-01 03:37:14.392
220.0, 187500.0, -26220.876124009625, 187500.0, 187500.0, 187500.0, 187500.0, 187500.0, -87459.22445764834, 0.02, -0.01, 0.978, 192.0, 0.0, 0.0, 0.0, 0.0, 0.0, 0.0, 0.0, 0.0, 0.0, 1.7172382343923974E9, 0.0, 2024-06-01 03:37:14.392
221.0, 187500.0, -26210.37080411563, 187500.0, 187500.0, 187500.0, 187500.0, 187500.0, -87453.7929837457, 0.02, -0.01, 0.978, 192.0, 0.0, 0.0, 0.0, 0.0, 0.0, 0.0, 0.0, 0.0, 0.0, 1.7172382343924105E9, 0.0, 2024-06-01 03:37:14.392
222.0, 187500.0, -26220.831420520713, 187500.0, 187500.0, 187500.0, 187500.0, 187500.0, -87445.47813480832, 0.02, -0.01, 0.978, 192.0, 0.0, 0.0, 0.0, 0.0, 0.0, 0.0, 0.0, 0.0, 0.0, 1.7172382343924236E9, 0.0, 2024-06-01 03:37:14.392
223.0, 187500.0, -26222.887781010602, 187500.0, 187500.0, 187500.0, 187500.0, 187500.0, -87447.19921913138, 0.02, -0.01, 0.978, 192.0, 0.0, 0.0, 0.0, 0.0, 0.0, 0.0, 0.0, 0.0, 0.0, 1.7172382343924367E9, 0.0, 2024-06-01 03:37:14.392
224.0, 187500.0, -26220.38438563161, 187500.0, 187500.0, 187500.0, 187500.0, 187500.0, -87463.24777165029, 0.02, -0.01, 0.978, 192.0, 0.0, 0.0, 0.0, 0.0, 0.0, 0.0, 0.0, 0.0, 0.0, 1.71723823439245E9, 0.0, 2024-06-01 03:37:14.392
225.0, 187500.0, -26215.377594873622, 187500.0, 187500.0, 187500.0, 187500.0, 187500.0, -87456.40813784697, 0.02, -0.01, 0.978, 192.0, 0.0, 0.0, 0.0, 0.0, 0.0, 0.0, 0.0, 0.0, 0.0, 1.7172382348709443E9, 0.0, 2024-06-01 03:37:14.870
226.0, 187500.0, -26222.28428391031, 187500.0, 187500.0, 187500.0, 187500.0, 187500.0, -87441.9912626733, 0.02, -0.01, 0.978, 192.0, 0.0, 0.0, 0.0, 0.0, 0.0, 0.0, 0.0, 0.0, 0.0, 1.7172382348710008E9, 0.0, 2024-06-01 03:37:14.871
227.0, 187500.0, -26220.317330398244, 187500.0, 187500.0, 187500.0, 187500.0, 187500.0, -87439.33140508311, 0.02, -0.01, 0.978, 192.0, 0.0, 0.0, 0.0, 0.0, 0.0, 0.0, 0.0, 0.0, 0.0, 1.7172382348710332E9, 0.0, 2024-06-01 03:37:14.871
228.0, 187500.0, -26217.81393501925, 187500.0, 187500.0, 187500.0, 187500.0, 187500.0, -87447.78036448722, 0.02, -0.006, 0.982, 192.0, 0.0, 160.0, 255.0, 208.0, 30.0, 176.0, 0.0, 0.0, 0.0, 1.7172382348710632E9, 0.0, 2024-06-01 03:37:14.871
229.0, 187500.0, -26209.879065737616, 187500.0, 187500.0, 187500.0, 187500.0, 187500.0, -87439.4878672943, 0.02, -0.006, 0.982, 192.0, 0.0, 0.0, 0.0, 0.0, 0.0, 0.0, 0.0, 0.0, 0.0, 1.7172382348710928E9, 0.0, 2024-06-01 03:37:14.871
230.0, 187500.0, -26214.170600673035, 187500.0, 187500.0, 187500.0, 187500.0, 187500.0, -87434.54813176968, 0.02, -0.006, 0.982, 192.0, 0.0, 0.0, 0.0, 0.0, 0.0, 0.0, 0.0, 0.0, 0.0, 1.7172382348711667E9, 0.0, 2024-06-01 03:37:14.871
231.0, 187500.0, -26232.38727240411, 187500.0, 187500.0, 187500.0, 187500.0, 187500.0, -87446.55101854217, 0.02, -0.006, 0.982, 192.0, 0.0, 0.0, 0.0, 0.0, 0.0, 0.0, 0.0, 0.0, 0.0, 1.717238234871189E9, 0.0, 2024-06-01 03:37:14.871
232.0, 187500.0, -26229.973284002936, 187500.0, 187500.0, 187500.0, 187500.0, 187500.0, -87459.51503032626, 0.02, -0.006, 0.982, 192.0, 0.0, 0.0, 0.0, 0.0, 0.0, 0.0, 0.0, 0.0, 0.0, 1.7172382348712049E9, 0.0, 2024-06-01 03:37:14.871
233.0, 187500.0, -26217.970397230434, 187500.0, 187500.0, 187500.0, 187500.0, 187500.0, -87452.83185873412, 0.02, -0.006, 0.982, 192.0, 0.0, 0.0, 0.0, 0.0, 0.0, 0.0, 0.0, 0.0, 0.0, 1.7172382348712206E9, 0.0, 2024-06-01 03:37:14.871
234.0, 187500.0, -26209.677900037517, 187500.0, 187500.0, 187500.0, 187500.0, 187500.0, -87432.22355034633, 0.02, -0.006, 0.982, 192.0, 0.0, 0.0, 0.0, 0.0, 0.0, 0.0, 0.0, 0.0, 0.0, 1.7172382348712368E9, 0.0, 2024-06-01 03:37:14.871
235.0, 187500.0, -26224.69827231148, 187500.0, 187500.0, 187500.0, 187500.0, 187500.0, -87435.21868410334, 0.02, -0.006, 0.982, 192.0, 0.0, 0.0, 0.0, 0.0, 0.0, 0.0, 0.0, 0.0, 0.0, 1.7172382348712528E9, 0.0, 2024-06-01 03:37:14.871
236.0, 187500.0, -26236.343531172697, 187500.0, 187500.0, 187500.0, 187500.0, 187500.0, -87457.81629774766, 0.02, -0.006, 0.982, 192.0, 0.0, 0.0, 0.0, 0.0, 0.0, 0.0, 0.0, 0.0, 0.0, 1.7172382348712687E9, 0.0, 2024-06-01 03:37:14.871
237.0, 187500.0, -26213.321234383733, 187500.0, 187500.0, 187500.0, 187500.0, 187500.0, -87453.27889362322, 0.02, -0.006, 0.982, 192.0, 0.0, 0.0, 0.0, 0.0, 0.0, 0.0, 0.0, 0.0, 0.0, 1.7172382348712845E9, 0.0, 2024-06-01 03:37:14.871
238.0, 187500.0, -26207.33096686971, 187500.0, 187500.0, 187500.0, 187500.0, 187500.0, -87441.11954463954, 0.022, -0.006, 0.978, 192.0, 0.0, 176.0, 255.0, 208.0, 30.0, 144.0, 0.0, 0.0, 0.0, 1.7172382348713007E9, 0.0, 2024-06-01 03:37:14.871
239.0, 187500.0, -26215.399946618076, 187500.0, 187500.0, 187500.0, 187500.0, 187500.0, -87432.24590209078, 0.022, -0.006, 0.978, 192.0, 0.0, 0.0, 0.0, 0.0, 0.0, 0.0, 0.0, 0.0, 0.0, 1.7172382348713171E9, 0.0, 2024-06-01 03:37:14.871
240.0, 187500.0, -26219.959702486958, 187500.0, 187500.0, 187500.0, 187500.0, 187500.0, -87443.75705048526, 0.022, -0.006, 0.978, 192.0, 0.0, 0.0, 0.0, 0.0, 0.0, 0.0, 0.0, 0.0, 0.0, 1.7172382348713324E9, 0.0, 2024-06-01 03:37:14.871
241.0, 187500.0, -26207.576836058717, 187500.0, 187500.0, 187500.0, 187500.0, 187500.0, -87456.54224831371, 0.022, -0.006, 0.978, 192.0, 0.0, 0.0, 0.0, 0.0, 0.0, 0.0, 0.0, 0.0, 0.0, 1.717238234871348E9, 0.0, 2024-06-01 03:37:14.871
242.0, 187500.0, -26203.777039501318, 187500.0, 187500.0, 187500.0, 187500.0, 187500.0, -87456.22932389133, 0.022, -0.006, 0.978, 192.0, 0.0, 0.0, 0.0, 0.0, 0.0, 0.0, 0.0, 0.0, 0.0, 1.717238234871364E9, 0.0, 2024-06-01 03:37:14.871
243.0, 187500.0, -26218.775060030828, 187500.0, 187500.0, 187500.0, 187500.0, 187500.0, -87446.08163190862, 0.022, -0.006, 0.978, 192.0, 0.0, 0.0, 0.0, 0.0, 0.0, 0.0, 0.0, 0.0, 0.0, 1.7172382348713791E9, 0.0, 2024-06-01 03:37:14.871
244.0, 187500.0, -26228.073385724234, 187500.0, 187500.0, 187500.0, 187500.0, 187500.0, -87453.07772792313, 0.022, -0.006, 0.978, 192.0, 0.0, 0.0, 0.0, 0.0, 0.0, 0.0, 0.0, 0.0, 0.0, 1.7172382348713944E9, 0.0, 2024-06-01 03:37:14.871
245.0, 187500.0, -26209.655548293063, 187500.0, 187500.0, 187500.0, 187500.0, 187500.0, -87452.25071337828, 0.022, -0.006, 0.978, 192.0, 0.0, 0.0, 0.0, 0.0, 0.0, 0.0, 0.0, 0.0, 0.0, 1.717238234871424E9, 0.0, 2024-06-01 03:37:14.871
246.0, 187500.0, -26197.116219653635, 187500.0, 187500.0, 187500.0, 187500.0, 187500.0, -87450.75314649977, 0.022, -0.006, 0.978, 192.0, 0.0, 0.0, 0.0, 0.0, 0.0, 0.0, 0.0, 0.0, 0.0, 1.7172382348714392E9, 0.0, 2024-06-01 03:37:14.871
247.0, 187500.0, -26210.974301215923, 187500.0, 187500.0, 187500.0, 187500.0, 187500.0, -87443.84645746309, 0.022, -0.006, 0.978, 192.0, 0.0, 0.0, 0.0, 0.0, 0.0, 0.0, 0.0, 0.0, 0.0, 1.7172382348714547E9, 0.0, 2024-06-01 03:37:14.871
248.0, 187500.0, -26216.09285069619, 187500.0, 187500.0, 187500.0, 187500.0, 187500.0, -87437.7891347157, 0.022, -0.008, 0.982, 192.0, 0.0, 176.0, 255.0, 192.0, 30.0, 176.0, 0.0, 0.0, 0.0, 1.7172382348714697E9, 0.0, 2024-06-01 03:37:14.871
249.0, 187500.0, -26204.9840337019, 187500.0, 187500.0, 187500.0, 187500.0, 187500.0, -87444.137030141, 0.022, -0.008, 0.982, 192.0, 0.0, 0.0, 0.0, 0.0, 0.0, 0.0, 0.0, 0.0, 0.0, 1.717238234871486E9, 0.0, 2024-06-01 03:37:14.871
250.0, 187500.0, -26199.86548422164, 187500.0, 187500.0, 187500.0, 187500.0, 187500.0, -87436.76095447075, 0.022, -0.008, 0.982, 192.0, 0.0, 0.0, 0.0, 0.0, 0.0, 0.0, 0.0, 0.0, 0.0, 1.7172382348715017E9, 0.0, 2024-06-01 03:37:14.871
251.0, 187500.0, -26214.595283817685, 187500.0, 187500.0, 187500.0, 187500.0, 187500.0, -87431.84357069059, 0.022, -0.008, 0.982, 192.0, 0.0, 0.0, 0.0, 0.0, 0.0, 0.0, 0.0, 0.0, 0.0, 1.7172382348715172E9, 0.0, 2024-06-01 03:37:14.871
