%OpenBCI Raw EXG Data
%Number of channels = 8
%Sample Rate = 250 Hz
%Board = OpenBCI_GUI$BoardCytonSerial
Sample Index, EXG Channel 0, EXG Channel 1, EXG Channel 2, EXG Channel 3, EXG Channel 4, EXG Channel 5, EXG Channel 6, EXG Channel 7, Accel Channel 0, Accel Channel 1, Accel Channel 2, Other, Other, Other, Other, Other, Other, Other, Analog Channel 0, Analog Channel 1, Analog Channel 2, Timestamp, Other, Timestamp (Formatted)
0.0, -187500.02235174447, -16227.388826297383, -187500.02235174447, -187500.02235174447, -187500.02235174447, -187500.02235174447, -54183.22136202113, -187500.02235174447, 0.028, 0.254, 0.9420000000000001, 192.0, 0.0, 224.0, 7.0, 240.0, 29.0, 112.0, 0.0, 0.0, 0.0, 1.7173973506583283E9, 0.0, 2024-06-02 23:49:10.658
1.0, -187500.02235174447, -16227.478233275204, -187500.02235174447, -187500.02235174447, -187500.02235174447, -187500.02235174447, -54185.121260299835, -187500.02235174447, 0.028, 0.254, 0.9420000000000001, 192.0, 0.0, 0.0, 0.0, 0.0, 0.0, 0.0, 0.0, 0.0, 0.0, 1.7173973506583877E9, 0.0, 2024-06-02 23:49:10.658
2.0, -187500.02235174447, -16222.605552983947, -187500.02235174447, -187500.02235174447, -187500.02235174447, -187500.02235174447, -54197.45942323917, -187500.02235174447, 0.028, 0.254, 0.9420000000000001, 192.0, 0.0, 0.0, 0.0, 0.0, 0.0, 0.0, 0.0, 0.0, 0.0, 1.717397350658405E9, 0.0, 2024-06-02 23:49:10.658
3.0, -187500.02235174447, -16220.795061683068, -187500.02235174447, -187500.02235174447, -187500.02235174447, -187500.02235174447, -54177.81223986295, -187500.02235174447, 0.028, 0.254, 0.9420000000000001, 192.0, 0.0, 0.0, 0.0, 0.0, 0.0, 0.0, 0.0, 0.0, 0.0, 1.7173973506584156E9, 0.0, 2024-06-02 23:49:10.658
4.0, -187500.02235174447, -16217.755224437145, -187500.02235174447, -187500.02235174447, -187500.02235174447, -187500.02235174447, -54170.369108959334, -187500.02235174447, 0.028, 0.254, 0.9420000000000001, 192.0, 0.0, 0.0, 0.0, 0.0, 0.0, 0.0, 0.0, 0.0, 0.0, 1.7173973506584263E9, 0.0, 2024-06-02 23:49:10.658
5.0, -187500.02235174447, -16218.246962815163, -187500.02235174447, -187500.02235174447, -187500.02235174447, -187500.02235174447, -54189.70336791317, -187500.02235174447, 0.028, 0.254, 0.9420000000000001, 192.0, 0.0, 0.0, 0.0, 0.0, 0.0, 0.0, 0.0, 0.0, 0.0, 1.717397350658445E9, 0.0, 2024-06-02 23:49:10.658
6.0, -187500.02235174447, -16227.902916419855, -187500.02235174447, -187500.02235174447, -187500.02235174447, -187500.02235174447, -54199.85105989588, -187500.02235174447, 0.028, 0.254, 0.9420000000000001, 192.0, 0.0, 0.0, 0.0, 0.0, 0.0, 0.0, 0.0, 0.0, 0.0, 1.717397350658455E9, 0.0, 2024-06-02 23:49:10.658
7.0, -187500.02235174447, -16219.029273871098, -187500.02235174447, -187500.02235174447, -187500.02235174447, -187500.02235174447, -54192.117356314346, -187500.02235174447, 0.028, 0.21, 0.9540000000000001, 192.0, 0.0, 224.0, 6.0, 144.0, 29.0, 208.0, 0.0, 0.0, 0.0, 1.7173973506584651E9, 0.0, 2024-06-02 23:49:10.658
8.0, -187500.02235174447, -16222.717311706223, -187500.02235174447, -187500.02235174447, -187500.02235174447, -187500.02235174447, -54191.066824324946, -187500.02235174447, 0.028, 0.21, 0.9540000000000001, 192.0, 0.0, 0.0, 0.0, 0.0, 0.0, 0.0, 0.0, 0.0, 0.0, 1.7173973506584756E9, 0.0, 2024-06-02 23:49:10.658
9.0, -187500.02235174447, -16230.272201332118, -187500.02235174447, -187500.02235174447, -187500.02235174447, -187500.02235174447, -54189.79277489099, -187500.02235174447, 0.028, 0.21, 0.9540000000000001, 192.0, 0.0, 0.0, 0.0, 0.0, 0.0, 0.0, 0.0, 0.0, 0.0, 1.7173973506584857E9, 0.0, 2024-06-02 23:49:10.658
10.0, -187500.02235174447, -16235.54721302357, -187500.02235174447, -187500.02235174447, -187500.02235174447, -187500.02235174447, -54199.71694942915, -187500.02235174447, 0.028, 0.21, 0.9540000000000001, 192.0, 0.0, 0.0, 0.0, 0.0, 0.0, 0.0, 0.0, 0.0, 0.0, 1.7173973506584957E9, 0.0, 2024-06-02 23:49:10.658
11.0, -187500.02235174447, -16229.73575946519, -187500.02235174447, -187500.02235174447, -187500.02235174447, -187500.02235174447, -54186.21649577815, -187500.02235174447, 0.028, 0.21, 0.9540000000000001, 192.0, 0.0, 0.0, 0.0, 0.0, 0.0, 0.0, 0.0, 0.0, 0.0, 1.7173973506585064E9, 0.0, 2024-06-02 23:49:10.658
12.0, -187500.02235174447, -16221.35385529445, -187500.02235174447, -187500.02235174447, -187500.02235174447, -187500.02235174447, -54170.86084733735, -187500.02235174447, 0.028, 0.21, 0.9540000000000001, 192.0, 0.0, 0.0, 0.0, 0.0, 0.0, 0.0, 0.0, 0.0, 0.0, 1.7173973506585174E9, 0.0, 2024-06-02 23:49:10.658
13.0, -187500.02235174447, -16214.581276724492, -187500.02235174447, -187500.02235174447, -187500.02235174447, -187500.02235174447, -54170.61497814834, -187500.02235174447, 0.028, 0.21, 0.9540000000000001, 192.0, 0.0, 0.0, 0.0, 0.0, 0.0, 0.0, 0.0, 0.0, 0.0, 1.717397350658528E9, 0.0, 2024-06-02 23:49:10.658
14.0, -187500.02235174447, -16213.530744735093, -187500.02235174447, -187500.02235174447, -187500.02235174447, -187500.02235174447, -54192.07265282544, -187500.02235174447, 0.028, 0.21, 0.9540000000000001, 192.0, 0.0, 0.0, 0.0, 0.0, 0.0, 0.0, 0.0, 0.0, 0.0, 1.717397350658538E9, 0.0, 2024-06-02 23:49:10.658
15.0, -187500.02235174447, -16227.232364086196, -187500.02235174447, -187500.02235174447, -187500.02235174447, -187500.02235174447, -54202.175641319234, -187500.02235174447, 0.028, 0.21, 0.9540000000000001, 192.0, 0.0, 0.0, 0.0, 0.0, 0.0, 0.0, 0.0, 0.0, 0.0, 1.71739735065865E9, 0.0, 2024-06-02 23:49:10.658
16.0, -187500.02235174447, -16221.912648905833, -187500.02235174447, -187500.02235174447, -187500.02235174447, -187500.02235174447, -54187.4905452121, -187500.02235174447, 0.022, 0.184, 0.964, 192.0, 0.0, 176.0, 5.0, 192.0, 30.0, 32.0, 0.0, 0.0, 0.0, 1.7173973506586607E9, 0.0, 2024-06-02 23:49:10.658
17.0, -187500.02235174447, -16220.571544238514, -187500.02235174447, -187500.02235174447, -187500.02235174447, -187500.02235174447, -54184.1377835438, -187500.02235174447, 0.022, 0.184, 0.964, 192.0, 0.0, 0.0, 0.0, 0.0, 0.0, 0.0, 0.0, 0.0, 0.0, 1.717397350658672E9, 0.0, 2024-06-02 23:49:10.658
18.0, -187500.02235174447, -16232.887355433388, -187500.02235174447, -187500.02235174447, -187500.02235174447, -187500.02235174447, -54201.281571541025, -187500.02235174447, 0.022, 0.184, 0.964, 192.0, 0.0, 0.0, 0.0, 0.0, 0.0, 0.0, 0.0, 0.0, 0.0, 1.717397350658682E9, 0.0, 2024-06-02 23:49:10.658
19.0, -187500.02235174447, -16237.290649091085, -187500.02235174447, -187500.02235174447, -187500.02235174447, -187500.02235174447, -54204.567277975955, -187500.02235174447, 0.022, 0.184, 0.964, 192.0, 0.0, 0.0, 0.0, 0.0, 0.0, 0.0, 0.0, 0.0, 0.0, 1.717397350658692E9, 0.0, 2024-06-02 23:49:10.658
20.0, -187500.02235174447, -16224.952486151755, -187500.02235174447, -187500.02235174447, -187500.02235174447, -187500.02235174447, -54186.171792289235, -187500.02235174447, 0.022, 0.184, 0.964, 192.0, 0.0, 0.0, 0.0, 0.0, 0.0, 0.0, 0.0, 0.0, 0.0, 1.7173973506587024E9, 0.0, 2024-06-02 23:49:10.658
21.0, -187500.02235174447, -16221.130337849896, -187500.02235174447, -187500.02235174447, -187500.02235174447, -187500.02235174447, -54176.314672984445, -187500.02235174447, 0.022, 0.184, 0.964, 192.0, 0.0, 0.0, 0.0, 0.0, 0.0, 0.0, 0.0, 0.0, 0.0, 1.7173973506587124E9, 0.0, 2024-06-02 23:49:10.658
22.0, -187500.02235174447, -16227.992323397677, -187500.02235174447, -187500.02235174447, -187500.02235174447, -187500.02235174447, -54183.62369342133, -187500.02235174447, 0.022, 0.184, 0.964, 192.0, 0.0, 0.0, 0.0, 0.0, 0.0, 0.0, 0.0, 0.0, 0.0, 1.7173973506587255E9, 0.0, 2024-06-02 23:49:10.658
23.0, -187500.02235174447, -16225.377169296406, -187500.02235174447, -187500.02235174447, -187500.02235174447, -187500.02235174447, -54190.97741734713, -187500.02235174447, 0.022, 0.184, 0.964, 192.0, 0.0, 0.0, 0.0, 0.0, 0.0, 0.0, 0.0, 0.0, 0.0, 1.717397350658736E9, 0.0, 2024-06-02 23:49:10.658
24.0, -187500.02235174447, -16224.997189640664, -187500.02235174447, -187500.02235174447, -187500.02235174447, -187500.02235174447, -54190.932713858216, -187500.02235174447, 0.022, 0.184, 0.964, 192.0, 0.0, 0.0, 0.0, 0.0, 0.0, 0.0, 0.0, 0.0, 0.0, 1.717397350658746E9, 0.0, 2024-06-02 23:49:10.658
25.0, -187500.02235174447, -16221.130337849896, -187500.02235174447, -187500.02235174447, -187500.02235174447, -187500.02235174447, -54184.89774285528, -187500.02235174447, 0.022, 0.184, 0.964, 192.0, 0.0, 0.0, 0.0, 0.0, 0.0, 0.0, 0.0, 0.0, 0.0, 1.717397350658756E9, 0.0, 2024-06-02 23:49:10.658
26.0, -187500.02235174447, -16214.15659357984, -187500.02235174447, -187500.02235174447, -187500.02235174447, -187500.02235174447, -54193.57021970394, -187500.02235174447, 0.026000000000000002, 0.168, 0.96, 192.0, 0.0, 208.0, 5.0, 64.0, 30.0, 0.0, 0.0, 0.0, 0.0, 1.717397350658766E9, 0.0, 2024-06-02 23:49:10.658
27.0, -187500.02235174447, -16224.25958207364, -187500.02235174447, -187500.02235174447, -187500.02235174447, -187500.02235174447, -54197.32531277243, -187500.02235174447, 0.026000000000000002, 0.168, 0.96, 192.0, 0.0, 0.0, 0.0, 0.0, 0.0, 0.0, 0.0, 0.0, 0.0, 1.7173973506587763E9, 0.0, 2024-06-02 23:49:10.658
28.0, -187500.02235174447, -16230.428663543305, -187500.02235174447, -187500.02235174447, -187500.02235174447, -187500.02235174447, -54192.56439120346, -187500.02235174447, 0.026000000000000002, 0.168, 0.96, 192.0, 0.0, 0.0, 0.0, 0.0, 0.0, 0.0, 0.0, 0.0, 0.0, 1.7173973506587863E9, 0.0, 2024-06-02 23:49:10.658
29.0, -187500.02235174447, -16218.314018048528, -187500.02235174447, -187500.02235174447, -187500.02235174447, -187500.02235174447, -54182.57316143193, -187500.02235174447, 0.026000000000000002, 0.168, 0.96, 192.0, 0.0, 0.0, 0.0, 0.0, 0.0, 0.0, 0.0, 0.0, 0.0, 1.7173973506587965E9, 0.0, 2024-06-02 23:49:10.658
30.0, -187500.02235174447, -16227.232364086196, -187500.02235174447, -187500.02235174447, -187500.02235174447, -187500.02235174447, -54202.68973144171, -187500.02235174447, 0.026000000000000002, 0.168, 0.96, 192.0, 0.0, 0.0, 0.0, 0.0, 0.0, 0.0, 0.0, 0.0, 0.0, 1.7173973506588252E9, 0.0, 2024-06-02 23:49:10.658
31.0, -187500.02235174447, -16246.164291639841, -187500.02235174447, -187500.02235174447, -187500.02235174447, -187500.02235174447, -54216.927792659735, -187500.02235174447, 0.026000000000000002, 0.168, 0.96, 192.0, 0.0, 0.0, 0.0, 0.0, 0.0, 0.0, 0.0, 0.0, 0.0, 1.7173973506588354E9, 0.0, 2024-06-02 23:49:10.658
32.0, -187500.02235174447, -16243.772654983122, -187500.02235174447, -187500.02235174447, -187500.02235174447, -187500.02235174447, -54207.27183905504, -187500.02235174447, 0.026000000000000002, 0.168, 0.96, 192.0, 0.0, 0.0, 0.0, 0.0, 0.0, 0.0, 0.0, 0.0, 0.0, 1.7173973506588454E9, 0.0, 2024-06-02 23:49:10.658
33.0, -187500.02235174447, -16235.971896168221, -187500.02235174447, -187500.02235174447, -187500.02235174447, -187500.02235174447, -54195.44776623819, -187500.02235174447, 0.026000000000000002, 0.168, 0.96, 192.0, 0.0, 0.0, 0.0, 0.0, 0.0, 0.0, 0.0, 0.0, 0.0, 1.7173973506588554E9, 0.0, 2024-06-02 23:49:10.658
34.0, -187500.02235174447, -16239.995210170177, -187500.02235174447, -187500.02235174447, -187500.02235174447, -187500.02235174447, -54203.650856453285, -187500.02235174447, 0.026000000000000002, 0.168, 0.96, 192.0, 0.0, 0.0, 0.0, 0.0, 0.0, 0.0, 0.0, 0.0, 0.0, 1.7173973506588652E9, 0.0, 2024-06-02 23:49:10.658
35.0, -187500.02235174447, -16246.611326528948, -187500.02235174447, -187500.02235174447, -187500.02235174447, -187500.02235174447, -54212.032760624024, -187500.02235174447, 0.026000000000000002, 0.168, 0.96, 192.0, 0.0, 0.0, 0.0, 0.0, 0.0, 0.0, 0.0, 0.0, 0.0, 1.7173973506588752E9, 0.0, 2024-06-02 23:49:10.658
36.0, -187500.02235174447, -16241.001038670665, -187500.02235174447, -187500.02235174447, -187500.02235174447, -187500.02235174447, -54199.940466873704, -187500.02235174447, 0.026000000000000002, 0.158, 0.96, 192.0, 0.0, 208.0, 4.0, 240.0, 30.0, 0.0, 0.0, 0.0, 0.0, 1.7173973506588857E9, 0.0, 2024-06-02 23:49:10.658
37.0, -187500.02235174447, -16224.9301344073, -187500.02235174447, -187500.02235174447, -187500.02235174447, -187500.02235174447, -54188.65283592378, -187500.02235174447, 0.026000000000000002, 0.158, 0.96, 192.0, 0.0, 0.0, 0.0, 0.0, 0.0, 0.0, 0.0, 0.0, 0.0, 1.7173973506588964E9, 0.0, 2024-06-02 23:49:10.658
38.0, -187500.02235174447, -16224.594858240469, -187500.02235174447, -187500.02235174447, -187500.02235174447, -187500.02235174447, -54181.410870720254, -187500.02235174447, 0.026000000000000002, 0.158, 0.96, 192.0, 0.0, 0.0, 0.0, 0.0, 0.0, 0.0, 0.0, 0.0, 0.0, 1.7173973506589067E9, 0.0, 2024-06-02 23:49:10.658
39.0, -187500.02235174447, -16232.328561822005, -187500.02235174447, -187500.02235174447, -187500.02235174447, -187500.02235174447, -54194.17371680424, -187500.02235174447, 0.026000000000000002, 0.158, 0.96, 192.0, 0.0, 0.0, 0.0, 0.0, 0.0, 0.0, 0.0, 0.0, 0.0, 1.7173973506589165E9, 0.0, 2024-06-02 23:49:10.658
40.0, -187500.02235174447, -16226.964143152733, -187500.02235174447, -187500.02235174447, -187500.02235174447, -187500.02235174447, -54185.612998677854, -187500.02235174447, 0.026000000000000002, 0.158, 0.96, 192.0, 0.0, 0.0, 0.0, 0.0, 0.0, 0.0, 0.0, 0.0, 0.0, 1.7173973506589265E9, 0.0, 2024-06-02 23:49:10.658
41.0, -187500.02235174447, -16225.041893129575, -187500.02235174447, -187500.02235174447, -187500.02235174447, -187500.02235174447, -54175.35354797287, -187500.02235174447, 0.026000000000000002, 0.158, 0.96, 192.0, 0.0, 0.0, 0.0, 0.0, 0.0, 0.0, 0.0, 0.0, 0.0, 1.7173973506589365E9, 0.0, 2024-06-02 23:49:10.658
42.0, -187500.02235174447, -16225.041893129575, -187500.02235174447, -187500.02235174447, -187500.02235174447, -187500.02235174447, -54183.13195504331, -187500.02235174447, 0.026000000000000002, 0.158, 0.96, 192.0, 0.0, 0.0, 0.0, 0.0, 0.0, 0.0, 0.0, 0.0, 0.0, 1.7173973506589468E9, 0.0, 2024-06-02 23:49:10.658
43.0, -187500.02235174447, -16223.298457062061, -187500.02235174447, -187500.02235174447, -187500.02235174447, -187500.02235174447, -54193.12318481484, -187500.02235174447, 0.026000000000000002, 0.158, 0.96, 192.0, 0.0, 0.0, 0.0, 0.0, 0.0, 0.0, 0.0, 0.0, 0.0, 1.7173973506589584E9, 0.0, 2024-06-02 23:49:10.658
44.0, -187500.02235174447, -16225.712445463234, -187500.02235174447, -187500.02235174447, -187500.02235174447, -187500.02235174447, -54187.60230393438, -187500.02235174447, 0.026000000000000002, 0.158, 0.96, 192.0, 0.0, 0.0, 0.0, 0.0, 0.0, 0.0, 0.0, 0.0, 0.0, 1.7173973506589684E9, 0.0, 2024-06-02 23:49:10.658
45.0, -187500.02235174447, -16223.611381484436, -187500.02235174447, -187500.02235174447, -187500.02235174447, -187500.02235174447, -54178.2369230076, -187500.02235174447, 0.026000000000000002, 0.158, 0.96, 192.0, 0.0, 0.0, 0.0, 0.0, 0.0, 0.0, 0.0, 0.0, 0.0, 1.7173973506589832E9, 0.0, 2024-06-02 23:49:10.658
46.0, -187500.02235174447, -16224.594858240469, -187500.02235174447, -187500.02235174447, -187500.02235174447, -187500.02235174447, -54180.159173030755, -187500.02235174447, 0.026000000000000002, 0.158, 0.964, 192.0, 0.0, 208.0, 4.0, 240.0, 30.0, 32.0, 0.0, 0.0, 0.0, 1.7173973506589932E9, 0.0, 2024-06-02 23:49:10.658
47.0, -187500.02235174447, -16228.886393175888, -187500.02235174447, -187500.02235174447, -187500.02235174447, -187500.02235174447, -54191.60326619187, -187500.02235174447, 0.026000000000000002, 0.158, 0.964, 192.0, 0.0, 0.0, 0.0, 0.0, 0.0, 0.0, 0.0, 0.0, 0.0, 1.7173973506590035E9, 0.0, 2024-06-02 23:49:10.659
48.0, -187500.02235174447, -16222.940829150777, -187500.02235174447, -187500.02235174447, -187500.02235174447, -187500.02235174447, -54186.90939985626, -187500.02235174447, 0.026000000000000002, 0.158, 0.964, 192.0, 0.0, 0.0, 0.0, 0.0, 0.0, 0.0, 0.0, 0.0, 0.0, 1.7173973506590135E9, 0.0, 2024-06-02 23:49:10.659
49.0, -187500.02235174447, -16227.58999199748, -187500.02235174447, -187500.02235174447, -187500.02235174447, -187500.02235174447, -54187.848173123384, -187500.02235174447, 0.026000000000000002, 0.158, 0.964, 192.0, 0.0, 0.0, 0.0, 0.0, 0.0, 0.0, 0.0, 0.0, 0.0, 1.717397350659024E9, 0.0, 2024-06-02 23:49:10.659
50.0, -187500.02235174447, -16221.845593672466, -187500.02235174447, -187500.02235174447, -187500.02235174447, -187500.02235174447, -54184.67422541073, -187500.02235174447, 0.026000000000000002, 0.158, 0.964, 192.0, 0.0, 0.0, 0.0, 0.0, 0.0, 0.0, 0.0, 0.0, 0.0, 1.7173973506590345E9, 0.0, 2024-06-02 23:49:10.659
51.0, -187500.02235174447, -16221.040930872075, -187500.02235174447, -187500.02235174447, -187500.02235174447, -187500.02235174447, -54197.25825753907, -187500.02235174447, 0.026000000000000002, 0.158, 0.964, 192.0, 0.0, 0.0, 0.0, 0.0, 0.0, 0.0, 0.0, 0.0, 0.0, 1.7173973506590445E9, 0.0, 2024-06-02 23:49:10.659
52.0, -187500.02235174447, -16221.800890183556, -187500.02235174447, -187500.02235174447, -187500.02235174447, -187500.02235174447, -54197.97351336164, -187500.02235174447, 0.026000000000000002, 0.158, 0.964, 192.0, 0.0, 0.0, 0.0, 0.0, 0.0, 0.0, 0.0, 0.0, 0.0, 1.7173973506590545E9, 0.0, 2024-06-02 23:49:10.659
53.0, -187500.02235174447, -16214.938904635777, -187500.02235174447, -187500.02235174447, -187500.02235174447, -187500.02235174447, -54194.06195808196, -187500.02235174447, 0.026000000000000002, 0.158, 0.964, 192.0, 0.0, 0.0, 0.0, 0.0, 0.0, 0.0, 0.0, 0.0, 0.0, 1.7173973506590648E9, 0.0, 2024-06-02 23:49:10.659
54.0, -187500.02235174447, -16221.487965761182, -187500.02235174447, -187500.02235174447, -187500.02235174447, -187500.02235174447, -54181.544981186984, -187500.02235174447, 0.026000000000000002, 0.158, 0.964, 192.0, 0.0, 0.0, 0.0, 0.0, 0.0, 0.0, 0.0, 0.0, 0.0, 1.7173973506590748E9, 0.0, 2024-06-02 23:49:10.659
55.0, -187500.02235174447, -16232.64148624438, -187500.02235174447, -187500.02235174447, -187500.02235174447, -187500.02235174447, -54195.91715287175, -187500.02235174447, 0.026000000000000002, 0.158, 0.964, 192.0, 0.0, 0.0, 0.0, 0.0, 0.0, 0.0, 0.0, 0.0, 0.0, 1.7173973506590853E9, 0.0, 2024-06-02 23:49:10.659
56.0, -187500.02235174447, -16232.97676241121, -187500.02235174447, -187500.02235174447, -187500.02235174447, -187500.02235174447, -54202.57797271943, -187500.02235174447, 0.032, 0.158, 0.962, 192.0, 1.0, 0.0, 4.0, 240.0, 30.0, 16.0, 0.0, 0.0, 0.0, 1.7173973506590953E9, 0.0, 2024-06-02 23:49:10.659
57.0, -187500.02235174447, -16229.869869931921, -187500.02235174447, -187500.02235174447, -187500.02235174447, -187500.02235174447, -54189.27868476852, -187500.02235174447, 0.032, 0.158, 0.962, 192.0, 0.0, 0.0, 0.0, 0.0, 0.0, 0.0, 0.0, 0.0, 0.0, 1.7173973506591055E9, 0.0, 2024-06-02 23:49:10.659
58.0, -187500.02235174447, -16224.348989051461, -187500.02235174447, -187500.02235174447, -187500.02235174447, -187500.02235174447, -54170.6373298928, -187500.02235174447, 0.032, 0.158, 0.962, 192.0, 0.0, 0.0, 0.0, 0.0, 0.0, 0.0, 0.0, 0.0, 0.0, 1.7173973506591156E9, 0.0, 2024-06-02 23:49:10.659
59.0, -187500.02235174447, -16222.270276817117, -187500.02235174447, -187500.02235174447, -187500.02235174447, -187500.02235174447, -54184.562466688454, -187500.02235174447, 0.032, 0.158, 0.962, 192.0, 0.0, 0.0, 0.0, 0.0, 0.0, 0.0, 0.0, 0.0, 0.0, 1.7173973506591256E9, 0.0, 2024-06-02 23:49:10.659
60.0, -187500.02235174447, -16226.45005303026, -187500.02235174447, -187500.02235174447, -187500.02235174447, -187500.02235174447, -54204.72374018714, -187500.02235174447, 0.032, 0.158, 0.962, 192.0, 0.0, 0.0, 0.0, 0.0, 0.0, 0.0, 0.0, 0.0, 0.0, 1.717397350659146E9, 0.0, 2024-06-02 23:49:10.659
61.0, -187500.02235174447, -16232.26150658864, -187500.02235174447, -187500.02235174447, -187500.02235174447, -187500.02235174447, -54198.46525173965, -187500.02235174447, 0.032, 0.158, 0.962, 192.0, 0.0, 0.0, 0.0, 0.0, 0.0, 0.0, 0.0, 0.0, 0.0, 1.717397350659156E9, 0.0, 2024-06-02 23:49:10.659
62.0, -187500.02235174447, -16219.096329104465, -187500.02235174447, -187500.02235174447, -187500.02235174447, -187500.02235174447, -54188.5410772015, -187500.02235174447, 0.032, 0.158, 0.962, 192.0, 0.0, 0.0, 0.0, 0.0, 0.0, 0.0, 0.0, 0.0, 0.0, 1.7173973506591663E9, 0.0, 2024-06-02 23:49:10.659
63.0, -187500.02235174447, -16215.184773824785, -187500.02235174447, -187500.02235174447, -187500.02235174447, -187500.02235174447, -54185.97062658914, -187500.02235174447, 0.032, 0.158, 0.962, 192.0, 0.0, 0.0, 0.0, 0.0, 0.0, 0.0, 0.0, 0.0, 0.0, 1.7173973506591766E9, 0.0, 2024-06-02 23:49:10.659
64.0, -187500.02235174447, -16225.801852441056, -187500.02235174447, -187500.02235174447, -187500.02235174447, -187500.02235174447, -54193.234943537114, -187500.02235174447, 0.032, 0.158, 0.962, 192.0, 0.0, 0.0, 0.0, 0.0, 0.0, 0.0, 0.0, 0.0, 0.0, 1.7173973506591876E9, 0.0, 2024-06-02 23:49:10.659
65.0, -187500.02235174447, -16224.907782662844, -187500.02235174447, -187500.02235174447, -187500.02235174447, -187500.02235174447, -54185.81416437795, -187500.02235174447, 0.032, 0.158, 0.962, 192.0, 0.0, 0.0, 0.0, 0.0, 0.0, 0.0, 0.0, 0.0, 0.0, 1.717397350659198E9, 0.0, 2024-06-02 23:49:10.659
66.0, -187500.02235174447, -16219.252791315652, -187500.02235174447, -187500.02235174447, -187500.02235174447, -187500.02235174447, -54176.62759740682, -187500.02235174447, 0.028, 0.154, 0.966, 192.0, 0.0, 224.0, 4.0, 208.0, 30.0, 48.0, 0.0, 0.0, 0.0, 1.717397350659208E9, 0.0, 2024-06-02 23:49:10.659
67.0, -187500.02235174447, -16213.754262179646, -187500.02235174447, -187500.02235174447, -187500.02235174447, -187500.02235174447, -54176.046452050985, -187500.02235174447, 0.028, 0.154, 0.966, 192.0, 0.0, 0.0, 0.0, 0.0, 0.0, 0.0, 0.0, 0.0, 0.0, 1.7173973506592185E9, 0.0, 2024-06-02 23:49:10.659
68.0, -187500.02235174447, -16220.482137260693, -187500.02235174447, -187500.02235174447, -187500.02235174447, -187500.02235174447, -54186.97645508963, -187500.02235174447, 0.028, 0.154, 0.966, 192.0, 0.0, 0.0, 0.0, 0.0, 0.0, 0.0, 0.0, 0.0, 0.0, 1.7173973506592288E9, 0.0, 2024-06-02 23:49:10.659
69.0, -187500.02235174447, -16235.994247912677, -187500.02235174447, -187500.02235174447, -187500.02235174447, -187500.02235174447, -54211.98805713512, -187500.02235174447, 0.028, 0.154, 0.966, 192.0, 0.0, 0.0, 0.0, 0.0, 0.0, 0.0, 0.0, 0.0, 0.0, 1.7173973506592388E9, 0.0, 2024-06-02 23:49:10.659
70.0, -187500.02235174447, -16229.69105597628, -187500.02235174447, -187500.02235174447, -187500.02235174447, -187500.02235174447, -54195.62658019383, -187500.02235174447, 0.028, 0.154, 0.966, 192.0, 0.0, 0.0, 0.0, 0.0, 0.0, 0.0, 0.0, 0.0, 0.0, 1.7173973506592488E9, 0.0, 2024-06-02 23:49:10.659
71.0, -187500.02235174447, -16224.103119862453, -187500.02235174447, -187500.02235174447, -187500.02235174447, -187500.02235174447, -54182.30494049847, -187500.02235174447, 0.028, 0.154, 0.966, 192.0, 0.0, 0.0, 0.0, 0.0, 0.0, 0.0, 0.0, 0.0, 0.0, 1.7173973506592588E9, 0.0, 2024-06-02 23:49:10.659
72.0, -187500.02235174447, -16225.377169296406, -187500.02235174447, -187500.02235174447, -187500.02235174447, -187500.02235174447, -54195.961856360664, -187500.02235174447, 0.028, 0.154, 0.966, 192.0, 0.0, 0.0, 0.0, 0.0, 0.0, 0.0, 0.0, 0.0, 0.0, 1.717397350659269E9, 0.0, 2024-06-02 23:49:10.659
73.0, -187500.02235174447, -16231.568602510526, -187500.02235174447, -187500.02235174447, -187500.02235174447, -187500.02235174447, -54216.19018509272, -187500.02235174447, 0.028, 0.154, 0.966, 192.0, 0.0, 0.0, 0.0, 0.0, 0.0, 0.0, 0.0, 0.0, 0.0, 1.717397350659279E9, 0.0, 2024-06-02 23:49:10.659
74.0, -187500.02235174447, -16227.232364086196, -187500.02235174447, -187500.02235174447, -187500.02235174447, -187500.02235174447, -54209.328199544936, -187500.02235174447, 0.028, 0.154, 0.966, 192.0, 0.0, 0.0, 0.0, 0.0, 0.0, 0.0, 0.0, 0.0, 0.0, 1.7173973506592891E9, 0.0, 2024-06-02 23:49:10.659
75.0, -187500.02235174447, -16217.956390137244, -187500.02235174447, -187500.02235174447, -187500.02235174447, -187500.02235174447, -54195.894801127295, -187500.02235174447, 0.028, 0.154, 0.966, 192.0, 0.0, 0.0, 0.0, 0.0, 0.0, 0.0, 0.0, 0.0, 0.0, 1.7173973506593115E9, 0.0, 2024-06-02 23:49:10.659
76.0, -187500.02235174447, -16231.613305999435, -187500.02235174447, -187500.02235174447, -187500.02235174447, -187500.02235174447, -54193.68197842622, -187500.02235174447, 0.03, 0.158, 0.966, 192.0, 0.0, 240.0, 4.0, 240.0, 30.0, 48.0, 0.0, 0.0, 0.0, 1.717397350659322E9, 0.0, 2024-06-02 23:49:10.659
77.0, -187500.02235174447, -16237.40240781336, -187500.02235174447, -187500.02235174447, -187500.02235174447, -187500.02235174447, -54202.600324463885, -187500.02235174447, 0.03, 0.158, 0.966, 192.0, 0.0, 0.0, 0.0, 0.0, 0.0, 0.0, 0.0, 0.0, 0.0, 1.7173973506593328E9, 0.0, 2024-06-02 23:49:10.659
78.0, -187500.02235174447, -16223.097291361964, -187500.02235174447, -187500.02235174447, -187500.02235174447, -187500.02235174447, -54196.76651916105, -187500.02235174447, 0.03, 0.158, 0.966, 192.0, 0.0, 0.0, 0.0, 0.0, 0.0, 0.0, 0.0, 0.0, 0.0, 1.7173973506593425E9, 0.0, 2024-06-02 23:49:10.659
79.0, -187500.02235174447, -16209.954465622242, -187500.02235174447, -187500.02235174447, -187500.02235174447, -187500.02235174447, -54181.92496084273, -187500.02235174447, 0.03, 0.158, 0.966, 192.0, 0.0, 0.0, 0.0, 0.0, 0.0, 0.0, 0.0, 0.0, 0.0, 1.7173973506593525E9, 0.0, 2024-06-02 23:49:10.659
80.0, -187500.02235174447, -16207.428718498793, -187500.02235174447, -187500.02235174447, -187500.02235174447, -187500.02235174447, -54190.15040280228, -187500.02235174447, 0.03, 0.158, 0.966, 192.0, 0.0, 0.0, 0.0, 0.0, 0.0, 0.0, 0.0, 0.0, 0.0, 1.7173973506593626E9, 0.0, 2024-06-02 23:49:10.659
81.0, -187500.02235174447, -16223.030236128598, -187500.02235174447, -187500.02235174447, -187500.02235174447, -187500.02235174447, -54189.30103651298, -187500.02235174447, 0.03, 0.158, 0.966, 192.0, 0.0, 0.0, 0.0, 0.0, 0.0, 0.0, 0.0, 0.0, 0.0, 1.7173973506593728E9, 0.0, 2024-06-02 23:49:10.659
82.0, -187500.02235174447, -16226.226535585707, -187500.02235174447, -187500.02235174447, -187500.02235174447, -187500.02235174447, -54183.62369342133, -187500.02235174447, 0.03, 0.158, 0.966, 192.0, 0.0, 0.0, 0.0, 0.0, 0.0, 0.0, 0.0, 0.0, 0.0, 1.7173973506593828E9, 0.0, 2024-06-02 23:49:10.659
83.0, -187500.02235174447, -16215.318884291517, -187500.02235174447, -187500.02235174447, -187500.02235174447, -187500.02235174447, -54188.63048417932, -187500.02235174447, 0.03, 0.158, 0.966, 192.0, 0.0, 0.0, 0.0, 0.0, 0.0, 0.0, 0.0, 0.0, 0.0, 1.7173973506593928E9, 0.0, 2024-06-02 23:49:10.659
84.0, -187500.02235174447, -16216.056491858542, -187500.02235174447, -187500.02235174447, -187500.02235174447, -187500.02235174447, -54207.16008033277, -187500.02235174447, 0.03, 0.158, 0.966, 192.0, 0.0, 0.0, 0.0, 0.0, 0.0, 0.0, 0.0, 0.0, 0.0, 1.7173973506594102E9, 0.0, 2024-06-02 23:49:10.659
85.0, -187500.02235174447, -16218.738701193179, -187500.02235174447, -187500.02235174447, -187500.02235174447, -187500.02235174447, -54217.710103715675, -187500.02235174447, 0.03, 0.158, 0.966, 192.0, 0.0, 0.0, 0.0, 0.0, 0.0, 0.0, 0.0, 0.0, 0.0, 1.7173973506594205E9, 0.0, 2024-06-02 23:49:10.659
86.0, -187500.02235174447, -16206.78051790959, -187500.02235174447, -187500.02235174447, -187500.02235174447, -187500.02235174447, -54203.06971109745, -187500.02235174447, 0.036000000000000004, 0.164, 0.968, 192.0, 1.0, 32.0, 5.0, 32.0, 30.0, 64.0, 0.0, 0.0, 0.0, 1.7173973506594317E9, 0.0, 2024-06-02 23:49:10.659
87.0, -187500.02235174447, -16203.673625430301, -187500.02235174447, -187500.02235174447, -187500.02235174447, -187500.02235174447, -54184.9424463442, -187500.02235174447, 0.036000000000000004, 0.164, 0.968, 192.0, 0.0, 0.0, 0.0, 0.0, 0.0, 0.0, 0.0, 0.0, 0.0, 1.717397350659443E9, 0.0, 2024-06-02 23:49:10.659
88.0, -187500.02235174447, -16215.721215691712, -187500.02235174447, -187500.02235174447, -187500.02235174447, -187500.02235174447, -54188.94340860169, -187500.02235174447, 0.036000000000000004, 0.164, 0.968, 192.0, 0.0, 0.0, 0.0, 0.0, 0.0, 0.0, 0.0, 0.0, 0.0, 1.717397350659453E9, 0.0, 2024-06-02 23:49:10.659
89.0, -187500.02235174447, -16222.985532639686, -187500.02235174447, -187500.02235174447, -187500.02235174447, -187500.02235174447, -54201.61684770785, -187500.02235174447, 0.036000000000000004, 0.164, 0.968, 192.0, 0.0, 0.0, 0.0, 0.0, 0.0, 0.0, 0.0, 0.0, 0.0, 1.7173973506594627E9, 0.0, 2024-06-02 23:49:10.659
90.0, -187500.02235174447, -16225.958314652244, -187500.02235174447, -187500.02235174447, -187500.02235174447, -187500.02235174447, -54203.47204249764, -187500.02235174447, 0.036000000000000004, 0.164, 0.968, 192.0, 0.0, 0.0, 0.0, 0.0, 0.0, 0.0, 0.0, 0.0, 0.0, 1.7173973506594772E9, 0.0, 2024-06-02 23:49:10.659
91.0, -187500.02235174447, -16222.046759372564, -187500.02235174447, -187500.02235174447, -187500.02235174447, -187500.02235174447, -54197.92880987273, -187500.02235174447, 0.036000000000000004, 0.164, 0.968, 192.0, 0.0, 0.0, 0.0, 0.0, 0.0, 0.0, 0.0, 0.0, 0.0, 1.7173973506594875E9, 0.0, 2024-06-02 23:49:10.659
92.0, -187500.02235174447, -16216.727044192201, -187500.02235174447, -187500.02235174447, -187500.02235174447, -187500.02235174447, -54200.90159188528, -187500.02235174447, 0.036000000000000004, 0.164, 0.968, 192.0, 0.0, 0.0, 0.0, 0.0, 0.0, 0.0, 0.0, 0.0, 0.0, 1.7173973506594975E9, 0.0, 2024-06-02 23:49:10.659
93.0, -187500.02235174447, -16220.057454116042, -187500.02235174447, -187500.02235174447, -187500.02235174447, -187500.02235174447, -54204.65668495378, -187500.02235174447, 0.036000000000000004, 0.164, 0.968, 192.0, 0.0, 0.0, 0.0, 0.0, 0.0, 0.0, 0.0, 0.0, 0.0, 1.7173973506595075E9, 0.0, 2024-06-02 23:49:10.659
94.0, -187500.02235174447, -16218.626942470903, -187500.02235174447, -187500.02235174447, -187500.02235174447, -187500.02235174447, -54209.61877222285, -187500.02235174447, 0.036000000000000004, 0.164, 0.968, 192.0, 0.0, 0.0, 0.0, 0.0, 0.0, 0.0, 0.0, 0.0, 0.0, 1.7173973506595175E9, 0.0, 2024-06-02 23:49:10.659
95.0, -187500.02235174447, -16214.804794169046, -187500.02235174447, -187500.02235174447, -187500.02235174447, -187500.02235174447, -54200.543963974, -187500.02235174447, 0.036000000000000004, 0.164, 0.968, 192.0, 0.0, 0.0, 0.0, 0.0, 0.0, 0.0, 0.0, 0.0, 0.0, 1.7173973506595278E9, 0.0, 2024-06-02 23:49:10.659
96.0, -187500.02235174447, -16208.121622576908, -187500.02235174447, -187500.02235174447, -187500.02235174447, -187500.02235174447, -54175.77823111752, -187500.02235174447, 0.03, 0.16, 0.966, 192.0, 0.0, 240.0, 5.0, 0.0, 30.0, 48.0, 0.0, 0.0, 0.0, 1.7173973506595378E9, 0.0, 2024-06-02 23:49:10.659
97.0, -187500.02235174447, -16202.936017863276, -187500.02235174447, -187500.02235174447, -187500.02235174447, -187500.02235174447, -54190.664492924756, -187500.02235174447, 0.03, 0.16, 0.966, 192.0, 0.0, 0.0, 0.0, 0.0, 0.0, 0.0, 0.0, 0.0, 0.0, 1.717397350659548E9, 0.0, 2024-06-02 23:49:10.659
98.0, -187500.02235174447, -16214.044834857565, -187500.02235174447, -187500.02235174447, -187500.02235174447, -187500.02235174447, -54206.82480416594, -187500.02235174447, 0.03, 0.16, 0.966, 192.0, 0.0, 0.0, 0.0, 0.0, 0.0, 0.0, 0.0, 0.0, 0.0, 1.7173973506595583E9, 0.0, 2024-06-02 23:49:10.659
99.0, -187500.02235174447, -16220.526840749604, -187500.02235174447, -187500.02235174447, -187500.02235174447, -187500.02235174447, -54194.17371680424, -187500.02235174447, 0.03, 0.16, 0.966, 192.0, 0.0, 0.0, 0.0, 0.0, 0.0, 0.0, 0.0, 0.0, 0.0, 1.717397350659568E9, 0.0, 2024-06-02 23:49:10.659
100.0, -187500.02235174447, -16224.907782662844, -187500.02235174447, -187500.02235174447, -187500.02235174447, -187500.02235174447, -54181.32146374243, -187500.02235174447, 0.03, 0.16, 0.966, 192.0, 0.0, 0.0, 0.0, 0.0, 0.0, 0.0, 0.0, 0.0, 0.0, 1.7173973506595783E9, 0.0, 2024-06-02 23:49:10.659
101.0, -187500.02235174447, -16230.585125754491, -187500.02235174447, -187500.02235174447, -187500.02235174447, -187500.02235174447, -54191.71502491415, -187500.02235174447, 0.03, 0.16, 0.966, 192.0, 0.0, 0.0, 0.0, 0.0, 0.0, 0.0, 0.0, 0.0, 0.0, 1.7173973506595883E9, 0.0, 2024-06-02 23:49:10.659
102.0, -187500.02235174447, -16229.378131553905, -187500.02235174447, -187500.02235174447, -187500.02235174447, -187500.02235174447, -54213.41856878025, -187500.02235174447, 0.03, 0.16, 0.966, 192.0, 0.0, 0.0, 0.0, 0.0, 0.0, 0.0, 0.0, 0.0, 0.0, 1.7173973506595986E9, 0.0, 2024-06-02 23:49:10.659
103.0, -187500.02235174447, -16222.426739028304, -187500.02235174447, -187500.02235174447, -187500.02235174447, -187500.02235174447, -54204.81314716496, -187500.02235174447, 0.03, 0.16, 0.966, 192.0, 0.0, 0.0, 0.0, 0.0, 0.0, 0.0, 0.0, 0.0, 0.0, 1.7173973506596086E9, 0.0, 2024-06-02 23:49:10.659
104.0, -187500.02235174447, -16214.625980213403, -187500.02235174447, -187500.02235174447, -187500.02235174447, -187500.02235174447, -54197.16885056125, -187500.02235174447, 0.03, 0.16, 0.966, 192.0, 0.0, 0.0, 0.0, 0.0, 0.0, 0.0, 0.0, 0.0, 0.0, 1.7173973506596186E9, 0.0, 2024-06-02 23:49:10.659
105.0, -187500.02235174447, -16217.263486059128, -187500.02235174447, -187500.02235174447, -187500.02235174447, -187500.02235174447, -54203.24852505309, -187500.02235174447, 0.03, 0.16, 0.966, 192.0, 0.0, 0.0, 0.0, 0.0, 0.0, 0.0, 0.0, 0.0, 0.0, 1.7173973506596327E9, 0.0, 2024-06-02 23:49:10.659
106.0, -187500.02235174447, -16222.87377391741, -187500.02235174447, -187500.02235174447, -187500.02235174447, -187500.02235174447, -54202.06388259696, -187500.02235174447, 0.026000000000000002, 0.156, 0.96, 192.0, 0.0, 208.0, 4.0, 224.0, 30.0, 0.0, 0.0, 0.0, 0.0, 1.7173973506596427E9, 0.0, 2024-06-02 23:49:10.659
107.0, -187500.02235174447, -16219.58806748248, -187500.02235174447, -187500.02235174447, -187500.02235174447, -187500.02235174447, -54184.853039366375, -187500.02235174447, 0.026000000000000002, 0.156, 0.96, 192.0, 0.0, 0.0, 0.0, 0.0, 0.0, 0.0, 0.0, 0.0, 0.0, 1.7173973506596546E9, 0.0, 2024-06-02 23:49:10.659
108.0, -187500.02235174447, -16215.005959869142, -187500.02235174447, -187500.02235174447, -187500.02235174447, -187500.02235174447, -54169.69855662568, -187500.02235174447, 0.026000000000000002, 0.156, 0.96, 192.0, 0.0, 0.0, 0.0, 0.0, 0.0, 0.0, 0.0, 0.0, 0.0, 1.7173973506596646E9, 0.0, 2024-06-02 23:49:10.659
109.0, -187500.02235174447, -16216.056491858542, -187500.02235174447, -187500.02235174447, -187500.02235174447, -187500.02235174447, -54175.554713672966, -187500.02235174447, 0.026000000000000002, 0.156, 0.96, 192.0, 0.0, 0.0, 0.0, 0.0, 0.0, 0.0, 0.0, 0.0, 0.0, 1.717397350659675E9, 0.0, 2024-06-02 23:49:10.659
110.0, -187500.02235174447, -16223.790195440079, -187500.02235174447, -187500.02235174447, -187500.02235174447, -187500.02235174447, -54196.72181567214, -187500.02235174447, 0.026000000000000002, 0.156, 0.96, 192.0, 0.0, 0.0, 0.0, 0.0, 0.0, 0.0, 0.0, 0.0, 0.0, 1.717397350659685E9, 0.0, 2024-06-02 23:49:10.659
111.0, -187500.02235174447, -16225.891259418877, -187500.02235174447, -187500.02235174447, -187500.02235174447, -187500.02235174447, -54205.86367915436, -187500.02235174447, 0.026000000000000002, 0.156, 0.96, 192.0, 0.0, 0.0, 0.0, 0.0, 0.0, 0.0, 0.0, 0.0, 0.0, 1.717397350659695E9, 0.0, 2024-06-02 23:49:10.659
112.0, -187500.02235174447, -16226.226535585707, -187500.02235174447, -187500.02235174447, -187500.02235174447, -187500.02235174447, -54203.67320819774, -187500.02235174447, 0.026000000000000002, 0.156, 0.96, 192.0, 0.0, 0.0, 0.0, 0.0, 0.0, 0.0, 0.0, 0.0, 0.0, 1.7173973506597047E9, 0.0, 2024-06-02 23:49:10.659
113.0, -187500.02235174447, -16226.628866985902, -187500.02235174447, -187500.02235174447, -187500.02235174447, -187500.02235174447, -54207.27183905504, -187500.02235174447, 0.026000000000000002, 0.156, 0.96, 192.0, 0.0, 0.0, 0.0, 0.0, 0.0, 0.0, 0.0, 0.0, 0.0, 1.7173973506597152E9, 0.0, 2024-06-02 23:49:10.659
114.0, -187500.02235174447, -16232.01563739963, -187500.02235174447, -187500.02235174447, -187500.02235174447, -187500.02235174447, -54220.68288572823, -187500.02235174447, 0.026000000000000002, 0.156, 0.96, 192.0, 0.0, 0.0, 0.0, 0.0, 0.0, 0.0, 0.0, 0.0, 0.0, 1.7173973506597252E9, 0.0, 2024-06-02 23:49:10.659
115.0, -187500.02235174447, -16227.858212930943, -187500.02235174447, -187500.02235174447, -187500.02235174447, -187500.02235174447, -54212.01040887957, -187500.02235174447, 0.026000000000000002, 0.156, 0.96, 192.0, 0.0, 0.0, 0.0, 0.0, 0.0, 0.0, 0.0, 0.0, 0.0, 1.717397350659735E9, 0.0, 2024-06-02 23:49:10.659
116.0, -187500.02235174447, -16222.382035539395, -187500.02235174447, -187500.02235174447, -187500.02235174447, -187500.02235174447, -54187.31173125646, -187500.02235174447, 0.034, 0.156, 0.9580000000000001, 192.0, 1.0, 16.0, 4.0, 224.0, 29.0, 240.0, 0.0, 0.0, 0.0, 1.7173973506597447E9, 0.0, 2024-06-02 23:49:10.659
117.0, -187500.02235174447, -16216.324712792006, -187500.02235174447, -187500.02235174447, -187500.02235174447, -187500.02235174447, -54165.67524262372, -187500.02235174447, 0.034, 0.156, 0.9580000000000001, 192.0, 0.0, 0.0, 0.0, 0.0, 0.0, 0.0, 0.0, 0.0, 0.0, 1.7173973506597557E9, 0.0, 2024-06-02 23:49:10.659
118.0, -187500.02235174447, -16222.49379426167, -187500.02235174447, -187500.02235174447, -187500.02235174447, -187500.02235174447, -54185.65770216676, -187500.02235174447, 0.034, 0.156, 0.9580000000000001, 192.0, 0.0, 0.0, 0.0, 0.0, 0.0, 0.0, 0.0, 0.0, 0.0, 1.7173973506597655E9, 0.0, 2024-06-02 23:49:10.659
119.0, -187500.02235174447, -16226.628866985902, -187500.02235174447, -187500.02235174447, -187500.02235174447, -187500.02235174447, -54205.64016170981, -187500.02235174447, 0.034, 0.156, 0.9580000000000001, 192.0, 0.0, 0.0, 0.0, 0.0, 0.0, 0.0, 0.0, 0.0, 0.0, 1.717397350659776E9, 0.0, 2024-06-02 23:49:10.659
120.0, -187500.02235174447, -16221.420910527815, -187500.02235174447, -187500.02235174447, -187500.02235174447, -187500.02235174447, -54201.32627502993, -187500.02235174447, 0.034, 0.156, 0.9580000000000001, 192.0, 0.0, 0.0, 0.0, 0.0, 0.0, 0.0, 0.0, 0.0, 0.0, 1.7173973511384225E9, 0.0, 2024-06-02 23:49:11.138
121.0, -187500.02235174447, -16221.532669250093, -187500.02235174447, -187500.02235174447, -187500.02235174447, -187500.02235174447, -54193.1902400482, -187500.02235174447, 0.034, 0.156, 0.9580000000000001, 192.0, 0.0, 0.0, 0.0, 0.0, 0.0, 0.0, 0.0, 0.0, 0.0, 1.7173973511384652E9, 0.0, 2024-06-02 23:49:11.138
122.0, -187500.02235174447, -16223.49962276216, -187500.02235174447, -187500.02235174447, -187500.02235174447, -187500.02235174447, -54193.3914057483, -187500.02235174447, 0.034, 0.156, 0.9580000000000001, 192.0, 0.0, 0.0, 0.0, 0.0, 0.0, 0.0, 0.0, 0.0, 0.0, 1.7173973511384792E9, 0.0, 2024-06-02 23:49:11.138
123.0, -187500.02235174447, -16226.78532919709, -187500.02235174447, -187500.02235174447, -187500.02235174447, -187500.02235174447, -54202.06388259696, -187500.02235174447, 0.034, 0.156, 0.9580000000000001, 192.0, 0.0, 0.0, 0.0, 0.0, 0.0, 0.0, 0.0, 0.0, 0.0, 1.7173973511384954E9, 0.0, 2024-06-02 23:49:11.138
124.0, -187500.02235174447, -16222.940829150777, -187500.02235174447, -187500.02235174447, -187500.02235174447, -187500.02235174447, -54201.66155119676, -187500.02235174447, 0.034, 0.156, 0.9580000000000001, 192.0, 0.0, 0.0, 0.0, 0.0, 0.0, 0.0, 0.0, 0.0, 0.0, 1.7173973511385114E9, 0.0, 2024-06-02 23:49:11.138
125.0, -187500.02235174447, -16219.431605271293, -187500.02235174447, -187500.02235174447, -187500.02235174447, -187500.02235174447, -54204.74609193159, -187500.02235174447, 0.034, 0.156, 0.9580000000000001, 192.0, 0.0, 0.0, 0.0, 0.0, 0.0, 0.0, 0.0, 0.0, 0.0, 1.717397351138521E9, 0.0, 2024-06-02 23:49:11.138
126.0, -187500.02235174447, -16222.806718684045, -187500.02235174447, -187500.02235174447, -187500.02235174447, -187500.02235174447, -54207.83063266643, -187500.02235174447, 0.03, 0.154, 0.97, 192.0, 0.0, 240.0, 4.0, 208.0, 30.0, 80.0, 0.0, 0.0, 0.0, 1.7173973511385307E9, 0.0, 2024-06-02 23:49:11.138
127.0, -187500.02235174447, -16231.792119955078, -187500.02235174447, -187500.02235174447, -187500.02235174447, -187500.02235174447, -54208.21061232217, -187500.02235174447, 0.03, 0.154, 0.97, 192.0, 0.0, 0.0, 0.0, 0.0, 0.0, 0.0, 0.0, 0.0, 0.0, 1.7173973511385412E9, 0.0, 2024-06-02 23:49:11.138
128.0, -187500.02235174447, -16226.047721630064, -187500.02235174447, -187500.02235174447, -187500.02235174447, -187500.02235174447, -54187.4905452121, -187500.02235174447, 0.03, 0.154, 0.97, 192.0, 0.0, 0.0, 0.0, 0.0, 0.0, 0.0, 0.0, 0.0, 0.0, 1.7173973511385503E9, 0.0, 2024-06-02 23:49:11.138
129.0, -187500.02235174447, -16217.107023847942, -187500.02235174447, -187500.02235174447, -187500.02235174447, -187500.02235174447, -54184.29424575499, -187500.02235174447, 0.03, 0.154, 0.97, 192.0, 0.0, 0.0, 0.0, 0.0, 0.0, 0.0, 0.0, 0.0, 0.0, 1.71739735113856E9, 0.0, 2024-06-02 23:49:11.138
130.0, -187500.02235174447, -16210.625017955903, -187500.02235174447, -187500.02235174447, -187500.02235174447, -187500.02235174447, -54198.66641743975, -187500.02235174447, 0.03, 0.154, 0.97, 192.0, 0.0, 0.0, 0.0, 0.0, 0.0, 0.0, 0.0, 0.0, 0.0, 1.717397351138569E9, 0.0, 2024-06-02 23:49:11.138
131.0, -187500.02235174447, -16221.376207038906, -187500.02235174447, -187500.02235174447, -187500.02235174447, -187500.02235174447, -54213.35151354689, -187500.02235174447, 0.03, 0.154, 0.97, 192.0, 0.0, 0.0, 0.0, 0.0, 0.0, 0.0, 0.0, 0.0, 0.0, 1.7173973511385787E9, 0.0, 2024-06-02 23:49:11.138
132.0, -187500.02235174447, -16223.812547184534, -187500.02235174447, -187500.02235174447, -187500.02235174447, -187500.02235174447, -54205.86367915436, -187500.02235174447, 0.03, 0.154, 0.97, 192.0, 0.0, 0.0, 0.0, 0.0, 0.0, 0.0, 0.0, 0.0, 0.0, 1.717397351138588E9, 0.0, 2024-06-02 23:49:11.138
133.0, -187500.02235174447, -16214.760090680134, -187500.02235174447, -187500.02235174447, -187500.02235174447, -187500.02235174447, -54196.5430017165, -187500.02235174447, 0.03, 0.154, 0.97, 192.0, 0.0, 0.0, 0.0, 0.0, 0.0, 0.0, 0.0, 0.0, 0.0, 1.7173973511385975E9, 0.0, 2024-06-02 23:49:11.138
134.0, -187500.02235174447, -16219.141032593374, -187500.02235174447, -187500.02235174447, -187500.02235174447, -187500.02235174447, -54197.92880987273, -187500.02235174447, 0.03, 0.154, 0.97, 192.0, 0.0, 0.0, 0.0, 0.0, 0.0, 0.0, 0.0, 0.0, 0.0, 1.7173973511386282E9, 0.0, 2024-06-02 23:49:11.138
135.0, -187500.02235174447, -16226.87473617491, -187500.02235174447, -187500.02235174447, -187500.02235174447, -187500.02235174447, -54208.92586814474, -187500.02235174447, 0.024, 0.16, 0.968, 192.0, 0.0, 192.0, 5.0, 0.0, 30.0, 64.0, 0.0, 0.0, 0.0, 1.7173973511386914E9, 0.0, 2024-06-02 23:49:11.138
136.0, -187500.02235174447, -16232.663837988835, -187500.02235174447, -187500.02235174447, -187500.02235174447, -187500.02235174447, -54209.64112396731, -187500.02235174447, 0.024, 0.16, 0.968, 192.0, 0.0, 0.0, 0.0, 0.0, 0.0, 0.0, 0.0, 0.0, 0.0, 1.7173973511387024E9, 0.0, 2024-06-02 23:49:11.138
137.0, -187500.02235174447, -16230.182794354296, -187500.02235174447, -187500.02235174447, -187500.02235174447, -187500.02235174447, -54195.20189704918, -187500.02235174447, 0.024, 0.16, 0.968, 192.0, 0.0, 0.0, 0.0, 0.0, 0.0, 0.0, 0.0, 0.0, 0.0, 1.7173973511387124E9, 0.0, 2024-06-02 23:49:11.138
138.0, -187500.02235174447, -16224.371340795917, -187500.02235174447, -187500.02235174447, -187500.02235174447, -187500.02235174447, -54191.78208014752, -187500.02235174447, 0.024, 0.16, 0.968, 192.0, 0.0, 0.0, 0.0, 0.0, 0.0, 0.0, 0.0, 0.0, 0.0, 1.717397351138722E9, 0.0, 2024-06-02 23:49:11.138
139.0, -187500.02235174447, -16220.482137260693, -187500.02235174447, -187500.02235174447, -187500.02235174447, -187500.02235174447, -54190.016292335546, -187500.02235174447, 0.024, 0.16, 0.968, 192.0, 0.0, 0.0, 0.0, 0.0, 0.0, 0.0, 0.0, 0.0, 0.0, 1.7173973511387322E9, 0.0, 2024-06-02 23:49:11.138
140.0, -187500.02235174447, -16221.912648905833, -187500.02235174447, -187500.02235174447, -187500.02235174447, -187500.02235174447, -54193.793737148495, -187500.02235174447, 0.024, 0.16, 0.968, 192.0, 0.0, 0.0, 0.0, 0.0, 0.0, 0.0, 0.0, 0.0, 0.0, 1.7173973511387417E9, 0.0, 2024-06-02 23:49:11.138
141.0, -187500.02235174447, -16211.295570289562, -187500.02235174447, -187500.02235174447, -187500.02235174447, -187500.02235174447, -54185.25537076657, -187500.02235174447, 0.024, 0.16, 0.968, 192.0, 0.0, 0.0, 0.0, 0.0, 0.0, 0.0, 0.0, 0.0, 0.0, 1.7173973511387513E9, 0.0, 2024-06-02 23:49:11.138
142.0, -187500.02235174447, -16190.508447946126, -187500.02235174447, -187500.02235174447, -187500.02235174447, -187500.02235174447, -54194.59839994889, -187500.02235174447, 0.024, 0.16, 0.968, 192.0, 0.0, 0.0, 0.0, 0.0, 0.0, 0.0, 0.0, 0.0, 0.0, 1.7173973511387606E9, 0.0, 2024-06-02 23:49:11.138
143.0, -187500.02235174447, -16204.59004695297, -187500.02235174447, -187500.02235174447, -187500.02235174447, -187500.02235174447, -54204.05318785348, -187500.02235174447, 0.024, 0.16, 0.968, 192.0, 0.0, 0.0, 0.0, 0.0, 0.0, 0.0, 0.0, 0.0, 0.0, 1.71739735113877E9, 0.0, 2024-06-02 23:49:11.138
144.0, -187500.02235174447, -16223.790195440079, -187500.02235174447, -187500.02235174447, -187500.02235174447, -187500.02235174447, -54206.73539718812, -187500.02235174447, 0.024, 0.16, 0.968, 192.0, 0.0, 0.0, 0.0, 0.0, 0.0, 0.0, 0.0, 0.0, 0.0, 1.7173973511387794E9, 0.0, 2024-06-02 23:49:11.138
145.0, -187500.02235174447, -16231.322733321516, -187500.02235174447, -187500.02235174447, -187500.02235174447, -187500.02235174447, -54193.41375749276, -187500.02235174447, 0.026000000000000002, 0.16, 0.962, 192.0, 0.0, 208.0, 5.0, 0.0, 30.0, 16.0, 0.0, 0.0, 0.0, 1.7173973511387885E9, 0.0, 2024-06-02 23:49:11.138
146.0, -187500.02235174447, -16226.919439663821, -187500.02235174447, -187500.02235174447, -187500.02235174447, -187500.02235174447, -54193.301998770476, -187500.02235174447, 0.026000000000000002, 0.16, 0.962, 192.0, 0.0, 0.0, 0.0, 0.0, 0.0, 0.0, 0.0, 0.0, 0.0, 1.717397351138801E9, 0.0, 2024-06-02 23:49:11.138
147.0, -187500.02235174447, -16222.024407628109, -187500.02235174447, -187500.02235174447, -187500.02235174447, -187500.02235174447, -54204.008484364575, -187500.02235174447, 0.026000000000000002, 0.16, 0.962, 192.0, 0.0, 0.0, 0.0, 0.0, 0.0, 0.0, 0.0, 0.0, 0.0, 1.7173973511388104E9, 0.0, 2024-06-02 23:49:11.138
148.0, -187500.02235174447, -16221.35385529445, -187500.02235174447, -187500.02235174447, -187500.02235174447, -187500.02235174447, -54205.34958903189, -187500.02235174447, 0.026000000000000002, 0.16, 0.962, 192.0, 0.0, 0.0, 0.0, 0.0, 0.0, 0.0, 0.0, 0.0, 0.0, 1.7173973511388197E9, 0.0, 2024-06-02 23:49:11.138
149.0, -187500.02235174447, -16225.176003596307, -187500.02235174447, -187500.02235174447, -187500.02235174447, -187500.02235174447, -54185.07655681093, -187500.02235174447, 0.026000000000000002, 0.16, 0.962, 192.0, 0.0, 0.0, 0.0, 0.0, 0.0, 0.0, 0.0, 0.0, 0.0, 1.7173973511388288E9, 0.0, 2024-06-02 23:49:11.138
150.0, -187500.02235174447, -16232.373265310916, -187500.02235174447, -187500.02235174447, -187500.02235174447, -187500.02235174447, -54178.08046079642, -187500.02235174447, 0.026000000000000002, 0.16, 0.962, 192.0, 0.0, 0.0, 0.0, 0.0, 0.0, 0.0, 0.0, 0.0, 0.0, 1.7173973511388433E9, 0.0, 2024-06-02 23:49:11.138
151.0, -187500.02235174447, -16234.094349633975, -187500.02235174447, -187500.02235174447, -187500.02235174447, -187500.02235174447, -54203.85202215338, -187500.02235174447, 0.026000000000000002, 0.16, 0.962, 192.0, 0.0, 0.0, 0.0, 0.0, 0.0, 0.0, 0.0, 0.0, 0.0, 1.7173973511388524E9, 0.0, 2024-06-02 23:49:11.138
152.0, -187500.02235174447, -16233.535556022593, -187500.02235174447, -187500.02235174447, -187500.02235174447, -187500.02235174447, -54217.10660661538, -187500.02235174447, 0.026000000000000002, 0.16, 0.962, 192.0, 0.0, 0.0, 0.0, 0.0, 0.0, 0.0, 0.0, 0.0, 0.0, 1.717397351138862E9, 0.0, 2024-06-02 23:49:11.138
153.0, -187500.02235174447, -16228.685227475791, -187500.02235174447, -187500.02235174447, -187500.02235174447, -187500.02235174447, -54202.01917910805, -187500.02235174447, 0.026000000000000002, 0.16, 0.962, 192.0, 0.0, 0.0, 0.0, 0.0, 0.0, 0.0, 0.0, 0.0, 0.0, 1.7173973511388712E9, 0.0, 2024-06-02 23:49:11.138
154.0, -187500.02235174447, -16217.777576181601, -187500.02235174447, -187500.02235174447, -187500.02235174447, -187500.02235174447, -54185.92592310023, -187500.02235174447, 0.026000000000000002, 0.16, 0.962, 192.0, 0.0, 0.0, 0.0, 0.0, 0.0, 0.0, 0.0, 0.0, 0.0, 1.7173973511388805E9, 0.0, 2024-06-02 23:49:11.138
155.0, -187500.02235174447, -16223.83489892899, -187500.02235174447, -187500.02235174447, -187500.02235174447, -187500.02235174447, -54194.978379604625, -187500.02235174447, 0.026000000000000002, 0.156, 0.962, 192.0, 0.0, 208.0, 4.0, 224.0, 30.0, 16.0, 0.0, 0.0, 0.0, 1.7173973511388898E9, 0.0, 2024-06-02 23:49:11.138
156.0, -187500.02235174447, -16233.40144555586, -187500.02235174447, -187500.02235174447, -187500.02235174447, -187500.02235174447, -54206.310714043466, -187500.02235174447, 0.026000000000000002, 0.156, 0.962, 192.0, 0.0, 0.0, 0.0, 0.0, 0.0, 0.0, 0.0, 0.0, 0.0, 1.7173973511388996E9, 0.0, 2024-06-02 23:49:11.138
157.0, -187500.02235174447, -16234.11670137843, -187500.02235174447, -187500.02235174447, -187500.02235174447, -187500.02235174447, -54199.53813547351, -187500.02235174447, 0.026000000000000002, 0.156, 0.962, 192.0, 0.0, 0.0, 0.0, 0.0, 0.0, 0.0, 0.0, 0.0, 0.0, 1.7173973511389089E9, 0.0, 2024-06-02 23:49:11.138
158.0, -187500.02235174447, -16226.003018141153, -187500.02235174447, -187500.02235174447, -187500.02235174447, -187500.02235174447, -54184.070728310435, -187500.02235174447, 0.026000000000000002, 0.156, 0.962, 192.0, 0.0, 0.0, 0.0, 0.0, 0.0, 0.0, 0.0, 0.0, 0.0, 1.717397351138918E9, 0.0, 2024-06-02 23:49:11.138
159.0, -187500.02235174447, -16223.767843695623, -187500.02235174447, -187500.02235174447, -187500.02235174447, -187500.02235174447, -54186.462364967156, -187500.02235174447, 0.026000000000000002, 0.156, 0.962, 192.0, 0.0, 0.0, 0.0, 0.0, 0.0, 0.0, 0.0, 0.0, 0.0, 1.7173973511389275E9, 0.0, 2024-06-02 23:49:11.138
160.0, -187500.02235174447, -16223.745491951167, -187500.02235174447, -187500.02235174447, -187500.02235174447, -187500.02235174447, -54188.764594646054, -187500.02235174447, 0.026000000000000002, 0.156, 0.962, 192.0, 0.0, 0.0, 0.0, 0.0, 0.0, 0.0, 0.0, 0.0, 0.0, 1.7173973511389365E9, 0.0, 2024-06-02 23:49:11.138
161.0, -187500.02235174447, -16219.655122715847, -187500.02235174447, -187500.02235174447, -187500.02235174447, -187500.02235174447, -54181.67909165372, -187500.02235174447, 0.026000000000000002, 0.156, 0.962, 192.0, 0.0, 0.0, 0.0, 0.0, 0.0, 0.0, 0.0, 0.0, 0.0, 1.7173973511389458E9, 0.0, 2024-06-02 23:49:11.138
162.0, -187500.02235174447, -16219.789233182579, -187500.02235174447, -187500.02235174447, -187500.02235174447, -187500.02235174447, -54178.14751602978, -187500.02235174447, 0.026000000000000002, 0.156, 0.962, 192.0, 0.0, 0.0, 0.0, 0.0, 0.0, 0.0, 0.0, 0.0, 0.0, 1.717397351138955E9, 0.0, 2024-06-02 23:49:11.138
163.0, -187500.02235174447, -16226.852384430455, -187500.02235174447, -187500.02235174447, -187500.02235174447, -187500.02235174447, -54190.17275454674, -187500.02235174447, 0.026000000000000002, 0.156, 0.962, 192.0, 0.0, 0.0, 0.0, 0.0, 0.0, 0.0, 0.0, 0.0, 0.0, 1.7173973511389656E9, 0.0, 2024-06-02 23:49:11.138
164.0, -187500.02235174447, -16240.039913659086, -187500.02235174447, -187500.02235174447, -187500.02235174447, -187500.02235174447, -54215.54198450351, -187500.02235174447, 0.026000000000000002, 0.156, 0.962, 192.0, 0.0, 0.0, 0.0, 0.0, 0.0, 0.0, 0.0, 0.0, 0.0, 1.7173973511389794E9, 0.0, 2024-06-02 23:49:11.138
165.0, -187500.02235174447, -16242.45390206026, -187500.02235174447, -187500.02235174447, -187500.02235174447, -187500.02235174447, -54221.21932759516, -187500.02235174447, 0.03, 0.152, 0.966, 192.0, 0.0, 240.0, 4.0, 192.0, 30.0, 48.0, 0.0, 0.0, 0.0, 1.7173973511389892E9, 0.0, 2024-06-02 23:49:11.138
166.0, -187500.02235174447, -16224.706616962745, -187500.02235174447, -187500.02235174447, -187500.02235174447, -187500.02235174447, -54205.37194077634, -187500.02235174447, 0.03, 0.152, 0.966, 192.0, 0.0, 0.0, 0.0, 0.0, 0.0, 0.0, 0.0, 0.0, 0.0, 1.7173973511389992E9, 0.0, 2024-06-02 23:49:11.138
167.0, -187500.02235174447, -16222.136166350385, -187500.02235174447, -187500.02235174447, -187500.02235174447, -187500.02235174447, -54196.654760438774, -187500.02235174447, 0.03, 0.152, 0.966, 192.0, 0.0, 0.0, 0.0, 0.0, 0.0, 0.0, 0.0, 0.0, 0.0, 1.7173973511390097E9, 0.0, 2024-06-02 23:49:11.139
168.0, -187500.02235174447, -16231.076864132508, -187500.02235174447, -187500.02235174447, -187500.02235174447, -187500.02235174447, -54207.987094877615, -187500.02235174447, 0.03, 0.152, 0.966, 192.0, 0.0, 0.0, 0.0, 0.0, 0.0, 0.0, 0.0, 0.0, 0.0, 1.7173973511390193E9, 0.0, 2024-06-02 23:49:11.139
169.0, -187500.02235174447, -16229.646352487369, -187500.02235174447, -187500.02235174447, -187500.02235174447, -187500.02235174447, -54203.44969075319, -187500.02235174447, 0.03, 0.152, 0.966, 192.0, 0.0, 0.0, 0.0, 0.0, 0.0, 0.0, 0.0, 0.0, 0.0, 1.7173973511390285E9, 0.0, 2024-06-02 23:49:11.139
170.0, -187500.02235174447, -16230.853346687956, -187500.02235174447, -187500.02235174447, -187500.02235174447, -187500.02235174447, -54182.55080968748, -187500.02235174447, 0.03, 0.152, 0.966, 192.0, 0.0, 0.0, 0.0, 0.0, 0.0, 0.0, 0.0, 0.0, 0.0, 1.7173973511390376E9, 0.0, 2024-06-02 23:49:11.139
171.0, -187500.02235174447, -16222.717311706223, -187500.02235174447, -187500.02235174447, -187500.02235174447, -187500.02235174447, -54172.693690382686, -187500.02235174447, 0.03, 0.152, 0.966, 192.0, 0.0, 0.0, 0.0, 0.0, 0.0, 0.0, 0.0, 0.0, 0.0, 1.717397351139047E9, 0.0, 2024-06-02 23:49:11.139
172.0, -187500.02235174447, -16224.326637307006, -187500.02235174447, -187500.02235174447, -187500.02235174447, -187500.02235174447, -54186.70823415616, -187500.02235174447, 0.03, 0.152, 0.966, 192.0, 0.0, 0.0, 0.0, 0.0, 0.0, 0.0, 0.0, 0.0, 0.0, 1.7173973511390564E9, 0.0, 2024-06-02 23:49:11.139
173.0, -187500.02235174447, -16228.796986198067, -187500.02235174447, -187500.02235174447, -187500.02235174447, -187500.02235174447, -54196.40889124977, -187500.02235174447, 0.03, 0.152, 0.966, 192.0, 0.0, 0.0, 0.0, 0.0, 0.0, 0.0, 0.0, 0.0, 0.0, 1.7173973511390657E9, 0.0, 2024-06-02 23:49:11.139
174.0, -187500.02235174447, -16223.723140206712, -187500.02235174447, -187500.02235174447, -187500.02235174447, -187500.02235174447, -54185.881219611314, -187500.02235174447, 0.03, 0.152, 0.966, 192.0, 0.0, 0.0, 0.0, 0.0, 0.0, 0.0, 0.0, 0.0, 0.0, 1.7173973511390755E9, 0.0, 2024-06-02 23:49:11.139
175.0, -187500.02235174447, -16219.386901782384, -187500.02235174447, -187500.02235174447, -187500.02235174447, -187500.02235174447, -54181.52262944253, -187500.02235174447, 0.026000000000000002, 0.158, 0.966, 192.0, 0.0, 208.0, 4.0, 240.0, 30.0, 48.0, 0.0, 0.0, 0.0, 1.7173973511390853E9, 0.0, 2024-06-02 23:49:11.139
176.0, -187500.02235174447, -16215.698863947257, -187500.02235174447, -187500.02235174447, -187500.02235174447, -187500.02235174447, -54193.503164470574, -187500.02235174447, 0.026000000000000002, 0.158, 0.966, 192.0, 0.0, 0.0, 0.0, 0.0, 0.0, 0.0, 0.0, 0.0, 0.0, 1.717397351139095E9, 0.0, 2024-06-02 23:49:11.139
177.0, -187500.02235174447, -16223.030236128598, -187500.02235174447, -187500.02235174447, -187500.02235174447, -187500.02235174447, -54200.3427982739, -187500.02235174447, 0.026000000000000002, 0.158, 0.966, 192.0, 0.0, 0.0, 0.0, 0.0, 0.0, 0.0, 0.0, 0.0, 0.0, 1.7173973511391041E9, 0.0, 2024-06-02 23:49:11.139
178.0, -187500.02235174447, -16226.092425118975, -187500.02235174447, -187500.02235174447, -187500.02235174447, -187500.02235174447, -54198.8452313954, -187500.02235174447, 0.026000000000000002, 0.158, 0.966, 192.0, 0.0, 0.0, 0.0, 0.0, 0.0, 0.0, 0.0, 0.0, 0.0, 1.717397351139114E9, 0.0, 2024-06-02 23:49:11.139
179.0, -187500.02235174447, -16212.368454023417, -187500.02235174447, -187500.02235174447, -187500.02235174447, -187500.02235174447, -54199.0911005844, -187500.02235174447, 0.026000000000000002, 0.158, 0.966, 192.0, 0.0, 0.0, 0.0, 0.0, 0.0, 0.0, 0.0, 0.0, 0.0, 1.717397351139129E9, 0.0, 2024-06-02 23:49:11.139
180.0, -187500.02235174447, -16216.503526747649, -187500.02235174447, -187500.02235174447, -187500.02235174447, -187500.02235174447, -54207.11537684386, -187500.02235174447, 0.026000000000000002, 0.158, 0.966, 192.0, 0.0, 0.0, 0.0, 0.0, 0.0, 0.0, 0.0, 0.0, 0.0, 1.7173973511391382E9, 0.0, 2024-06-02 23:49:11.139
181.0, -187500.02235174447, -16231.188622854785, -187500.02235174447, -187500.02235174447, -187500.02235174447, -187500.02235174447, -54215.676094970244, -187500.02235174447, 0.026000000000000002, 0.158, 0.966, 192.0, 0.0, 0.0, 0.0, 0.0, 0.0, 0.0, 0.0, 0.0, 0.0, 1.7173973511391473E9, 0.0, 2024-06-02 23:49:11.139
182.0, -187500.02235174447, -16231.702712977258, -187500.02235174447, -187500.02235174447, -187500.02235174447, -187500.02235174447, -54212.457443768675, -187500.02235174447, 0.026000000000000002, 0.158, 0.966, 192.0, 0.0, 0.0, 0.0, 0.0, 0.0, 0.0, 0.0, 0.0, 0.0, 1.7173973511391563E9, 0.0, 2024-06-02 23:49:11.139
183.0, -187500.02235174447, -16226.897087919366, -187500.02235174447, -187500.02235174447, -187500.02235174447, -187500.02235174447, -54193.54786795949, -187500.02235174447, 0.026000000000000002, 0.158, 0.966, 192.0, 0.0, 0.0, 0.0, 0.0, 0.0, 0.0, 0.0, 0.0, 0.0, 1.7173973511391656E9, 0.0, 2024-06-02 23:49:11.139
184.0, -187500.02235174447, -16226.517108263626, -187500.02235174447, -187500.02235174447, -187500.02235174447, -187500.02235174447, -54192.94437085919, -187500.02235174447, 0.026000000000000002, 0.158, 0.966, 192.0, 0.0, 0.0, 0.0, 0.0, 0.0, 0.0, 0.0, 0.0, 0.0, 1.717397351139175E9, 0.0, 2024-06-02 23:49:11.139
185.0, -187500.02235174447, -16231.099215876964, -187500.02235174447, -187500.02235174447, -187500.02235174447, -187500.02235174447, -54194.844269137895, -187500.02235174447, 0.028, 0.158, 0.968, 192.0, 0.0, 224.0, 4.0, 240.0, 30.0, 64.0, 0.0, 0.0, 0.0, 1.7173973511391847E9, 0.0, 2024-06-02 23:49:11.139
186.0, -187500.02235174447, -16233.73672172269, -187500.02235174447, -187500.02235174447, -187500.02235174447, -187500.02235174447, -54198.86758313985, -187500.02235174447, 0.028, 0.158, 0.968, 192.0, 0.0, 0.0, 0.0, 0.0, 0.0, 0.0, 0.0, 0.0, 0.0, 1.7173973511391943E9, 0.0, 2024-06-02 23:49:11.139
187.0, -187500.02235174447, -16225.846555929968, -187500.02235174447, -187500.02235174447, -187500.02235174447, -187500.02235174447, -54196.1406703163, -187500.02235174447, 0.028, 0.158, 0.968, 192.0, 0.0, 0.0, 0.0, 0.0, 0.0, 0.0, 0.0, 0.0, 0.0, 1.7173973511392033E9, 0.0, 2024-06-02 23:49:11.139
188.0, -187500.02235174447, -16231.367436810428, -187500.02235174447, -187500.02235174447, -187500.02235174447, -187500.02235174447, -54200.02987385153, -187500.02235174447, 0.028, 0.158, 0.968, 192.0, 0.0, 0.0, 0.0, 0.0, 0.0, 0.0, 0.0, 0.0, 0.0, 1.717397351139213E9, 0.0, 2024-06-02 23:49:11.139
189.0, -187500.02235174447, -16235.12252987892, -187500.02235174447, -187500.02235174447, -187500.02235174447, -187500.02235174447, -54212.41274027977, -187500.02235174447, 0.028, 0.158, 0.968, 192.0, 0.0, 0.0, 0.0, 0.0, 0.0, 0.0, 0.0, 0.0, 0.0, 1.717397351139222E9, 0.0, 2024-06-02 23:49:11.139
190.0, -187500.02235174447, -16231.523899021615, -187500.02235174447, -187500.02235174447, -187500.02235174447, -187500.02235174447, -54208.50118500009, -187500.02235174447, 0.028, 0.158, 0.968, 192.0, 0.0, 0.0, 0.0, 0.0, 0.0, 0.0, 0.0, 0.0, 0.0, 1.7173973511392312E9, 0.0, 2024-06-02 23:49:11.139
191.0, -187500.02235174447, -16214.022483113109, -187500.02235174447, -187500.02235174447, -187500.02235174447, -187500.02235174447, -54188.78694639051, -187500.02235174447, 0.028, 0.158, 0.968, 192.0, 0.0, 0.0, 0.0, 0.0, 0.0, 0.0, 0.0, 0.0, 0.0, 1.7173973511392407E9, 0.0, 2024-06-02 23:49:11.139
192.0, -187500.02235174447, -16212.770785423612, -187500.02235174447, -187500.02235174447, -187500.02235174447, -187500.02235174447, -54182.72962364312, -187500.02235174447, 0.028, 0.158, 0.968, 192.0, 0.0, 0.0, 0.0, 0.0, 0.0, 0.0, 0.0, 0.0, 0.0, 1.7173973511392508E9, 0.0, 2024-06-02 23:49:11.139
193.0, -187500.02235174447, -16233.379093811405, -187500.02235174447, -187500.02235174447, -187500.02235174447, -187500.02235174447, -54205.260182054066, -187500.02235174447, 0.028, 0.158, 0.968, 192.0, 0.0, 0.0, 0.0, 0.0, 0.0, 0.0, 0.0, 0.0, 0.0, 1.71739735113926E9, 0.0, 2024-06-02 23:49:11.139
194.0, -187500.02235174447, -16240.777521226111, -187500.02235174447, -187500.02235174447, -187500.02235174447, -187500.02235174447, -54205.64016170981, -187500.02235174447, 0.028, 0.158, 0.968, 192.0, 0.0, 0.0, 0.0, 0.0, 0.0, 0.0, 0.0, 0.0, 0.0, 1.7173973511392736E9, 0.0, 2024-06-02 23:49:11.139
195.0, -187500.02235174447, -16237.625925257913, -187500.02235174447, -187500.02235174447, -187500.02235174447, -187500.02235174447, -54181.634388164806, -187500.02235174447, 0.03, 0.156, 0.968, 192.0, 0.0, 240.0, 4.0, 224.0, 30.0, 64.0, 0.0, 0.0, 0.0, 1.7173973511392832E9, 0.0, 2024-06-02 23:49:11.139
196.0, -187500.02235174447, -16219.565715738025, -187500.02235174447, -187500.02235174447, -187500.02235174447, -187500.02235174447, -54176.58289391791, -187500.02235174447, 0.03, 0.156, 0.968, 192.0, 0.0, 0.0, 0.0, 0.0, 0.0, 0.0, 0.0, 0.0, 0.0, 1.7173973511392932E9, 0.0, 2024-06-02 23:49:11.139
197.0, -187500.02235174447, -16219.54336399357, -187500.02235174447, -187500.02235174447, -187500.02235174447, -187500.02235174447, -54194.93367611572, -187500.02235174447, 0.03, 0.156, 0.968, 192.0, 0.0, 0.0, 0.0, 0.0, 0.0, 0.0, 0.0, 0.0, 0.0, 1.7173973511393025E9, 0.0, 2024-06-02 23:49:11.139
198.0, -187500.02235174447, -16229.26637283163, -187500.02235174447, -187500.02235174447, -187500.02235174447, -187500.02235174447, -54209.77523443404, -187500.02235174447, 0.03, 0.156, 0.968, 192.0, 0.0, 0.0, 0.0, 0.0, 0.0, 0.0, 0.0, 0.0, 0.0, 1.717397351139312E9, 0.0, 2024-06-02 23:49:11.139
199.0, -187500.02235174447, -16224.751320451656, -187500.02235174447, -187500.02235174447, -187500.02235174447, -187500.02235174447, -54196.20772554967, -187500.02235174447, 0.03, 0.156, 0.968, 192.0, 0.0, 0.0, 0.0, 0.0, 0.0, 0.0, 0.0, 0.0, 0.0, 1.717397351139321E9, 0.0, 2024-06-02 23:49:11.139
200.0, -187500.02235174447, -16223.946657651266, -187500.02235174447, -187500.02235174447, -187500.02235174447, -187500.02235174447, -54184.495411455086, -187500.02235174447, 0.03, 0.156, 0.968, 192.0, 0.0, 0.0, 0.0, 0.0, 0.0, 0.0, 0.0, 0.0, 0.0, 1.7173973511393306E9, 0.0, 2024-06-02 23:49:11.139
201.0, -187500.02235174447, -16227.455881530748, -187500.02235174447, -187500.02235174447, -187500.02235174447, -187500.02235174447, -54197.66058893927, -187500.02235174447, 0.03, 0.156, 0.968, 192.0, 0.0, 0.0, 0.0, 0.0, 0.0, 0.0, 0.0, 0.0, 0.0, 1.71739735113934E9, 0.0, 2024-06-02 23:49:11.139
202.0, -187500.02235174447, -16226.114776863431, -187500.02235174447, -187500.02235174447, -187500.02235174447, -187500.02235174447, -54201.46038549666, -187500.02235174447, 0.03, 0.156, 0.968, 192.0, 0.0, 0.0, 0.0, 0.0, 0.0, 0.0, 0.0, 0.0, 0.0, 1.7173973511393492E9, 0.0, 2024-06-02 23:49:11.139
203.0, -187500.02235174447, -16228.01467514213, -187500.02235174447, -187500.02235174447, -187500.02235174447, -187500.02235174447, -54194.30782727097, -187500.02235174447, 0.03, 0.156, 0.968, 192.0, 0.0, 0.0, 0.0, 0.0, 0.0, 0.0, 0.0, 0.0, 0.0, 1.7173973511393588E9, 0.0, 2024-06-02 23:49:11.139
204.0, -187500.02235174447, -16231.680361232802, -187500.02235174447, -187500.02235174447, -187500.02235174447, -187500.02235174447, -54193.83844063741, -187500.02235174447, 0.03, 0.156, 0.968, 192.0, 0.0, 0.0, 0.0, 0.0, 0.0, 0.0, 0.0, 0.0, 0.0, 1.7173973511393683E9, 0.0, 2024-06-02 23:49:11.139
205.0, -187500.02235174447, -16231.59095425498, -187500.02235174447, -187500.02235174447, -187500.02235174447, -187500.02235174447, -54197.30296102798, -187500.02235174447, 0.03, 0.15, 0.966, 192.0, 0.0, 240.0, 4.0, 176.0, 30.0, 48.0, 0.0, 0.0, 0.0, 1.7173973511393783E9, 0.0, 2024-06-02 23:49:11.139
206.0, -187500.02235174447, -16229.981628654199, -187500.02235174447, -187500.02235174447, -187500.02235174447, -187500.02235174447, -54195.64893193829, -187500.02235174447, 0.03, 0.15, 0.966, 192.0, 0.0, 0.0, 0.0, 0.0, 0.0, 0.0, 0.0, 0.0, 0.0, 1.717397351139388E9, 0.0, 2024-06-02 23:49:11.139
207.0, -187500.02235174447, -16222.270276817117, -187500.02235174447, -187500.02235174447, -187500.02235174447, -187500.02235174447, -54182.79667887648, -187500.02235174447, 0.03, 0.15, 0.966, 192.0, 0.0, 0.0, 0.0, 0.0, 0.0, 0.0, 0.0, 0.0, 0.0, 1.7173973511393976E9, 0.0, 2024-06-02 23:49:11.139
208.0, -187500.02235174447, -16221.286800061083, -187500.02235174447, -187500.02235174447, -187500.02235174447, -187500.02235174447, -54188.3399115014, -187500.02235174447, 0.03, 0.15, 0.966, 192.0, 0.0, 0.0, 0.0, 0.0, 0.0, 0.0, 0.0, 0.0, 0.0, 1.7173973511394074E9, 0.0, 2024-06-02 23:49:11.139
209.0, -187500.02235174447, -16228.685227475791, -187500.02235174447, -187500.02235174447, -187500.02235174447, -187500.02235174447, -54202.51091748606, -187500.02235174447, 0.03, 0.15, 0.966, 192.0, 0.0, 0.0, 0.0, 0.0, 0.0, 0.0, 0.0, 0.0, 0.0, 1.7173973511394217E9, 0.0, 2024-06-02 23:49:11.139
210.0, -187500.02235174447, -16235.457806045748, -187500.02235174447, -187500.02235174447, -187500.02235174447, -187500.02235174447, -54211.138690845815, -187500.02235174447, 0.03, 0.15, 0.966, 192.0, 0.0, 0.0, 0.0, 0.0, 0.0, 0.0, 0.0, 0.0, 0.0, 1.717397351139431E9, 0.0, 2024-06-02 23:49:11.139
211.0, -187500.02235174447, -16233.7814252116, -187500.02235174447, -187500.02235174447, -187500.02235174447, -187500.02235174447, -54215.0949496144, -187500.02235174447, 0.03, 0.15, 0.966, 192.0, 0.0, 0.0, 0.0, 0.0, 0.0, 0.0, 0.0, 0.0, 0.0, 1.7173973511394413E9, 0.0, 2024-06-02 23:49:11.139
212.0, -187500.02235174447, -16234.720198478724, -187500.02235174447, -187500.02235174447, -187500.02235174447, -187500.02235174447, -54204.18729832021, -187500.02235174447, 0.03, 0.15, 0.966, 192.0, 0.0, 0.0, 0.0, 0.0, 0.0, 0.0, 0.0, 0.0, 0.0, 1.7173973511394503E9, 0.0, 2024-06-02 23:49:11.139
213.0, -187500.02235174447, -16246.611326528948, -187500.02235174447, -187500.02235174447, -187500.02235174447, -187500.02235174447, -54201.3933302633, -187500.02235174447, 0.03, 0.15, 0.966, 192.0, 0.0, 0.0, 0.0, 0.0, 0.0, 0.0, 0.0, 0.0, 0.0, 1.71739735113946E9, 0.0, 2024-06-02 23:49:11.139
214.0, -187500.02235174447, -16252.333373109506, -187500.02235174447, -187500.02235174447, -187500.02235174447, -187500.02235174447, -54219.16296710527, -187500.02235174447, 0.03, 0.15, 0.966, 192.0, 0.0, 0.0, 0.0, 0.0, 0.0, 0.0, 0.0, 0.0, 0.0, 1.7173973511394699E9, 0.0, 2024-06-02 23:49:11.139
215.0, -187500.02235174447, -16245.381980583905, -187500.02235174447, -187500.02235174447, -187500.02235174447, -187500.02235174447, -54217.82186243795, -187500.02235174447, 0.03, 0.152, 0.962, 192.0, 0.0, 240.0, 4.0, 192.0, 30.0, 16.0, 0.0, 0.0, 0.0, 1.7173973511394792E9, 0.0, 2024-06-02 23:49:11.139
216.0, -187500.02235174447, -16243.92911719431, -187500.02235174447, -187500.02235174447, -187500.02235174447, -187500.02235174447, -54206.936562888215, -187500.02235174447, 0.03, 0.152, 0.962, 192.0, 0.0, 0.0, 0.0, 0.0, 0.0, 0.0, 0.0, 0.0, 0.0, 1.7173973511394892E9, 0.0, 2024-06-02 23:49:11.139
217.0, -187500.02235174447, -16237.469463046726, -187500.02235174447, -187500.02235174447, -187500.02235174447, -187500.02235174447, -54199.78400466252, -187500.02235174447, 0.03, 0.152, 0.962, 192.0, 0.0, 0.0, 0.0, 0.0, 0.0, 0.0, 0.0, 0.0, 0.0, 1.7173973511394985E9, 0.0, 2024-06-02 23:49:11.139
218.0, -187500.02235174447, -16223.92430590681, -187500.02235174447, -187500.02235174447, -187500.02235174447, -187500.02235174447, -54202.82384190844, -187500.02235174447, 0.03, 0.152, 0.962, 192.0, 0.0, 0.0, 0.0, 0.0, 0.0, 0.0, 0.0, 0.0, 0.0, 1.717397351139508E9, 0.0, 2024-06-02 23:49:11.139
219.0, -187500.02235174447, -16225.332465807494, -187500.02235174447, -187500.02235174447, -187500.02235174447, -187500.02235174447, -54207.74122568861, -187500.02235174447, 0.03, 0.152, 0.962, 192.0, 0.0, 0.0, 0.0, 0.0, 0.0, 0.0, 0.0, 0.0, 0.0, 1.7173973511395173E9, 0.0, 2024-06-02 23:49:11.139
220.0, -187500.02235174447, -16232.865003688934, -187500.02235174447, -187500.02235174447, -187500.02235174447, -187500.02235174447, -54192.1397080588, -187500.02235174447, 0.03, 0.152, 0.962, 192.0, 0.0, 0.0, 0.0, 0.0, 0.0, 0.0, 0.0, 0.0, 0.0, 1.717397351139527E9, 0.0, 2024-06-02 23:49:11.139
221.0, -187500.02235174447, -16233.982590911699, -187500.02235174447, -187500.02235174447, -187500.02235174447, -187500.02235174447, -54186.663530667254, -187500.02235174447, 0.03, 0.152, 0.962, 192.0, 0.0, 0.0, 0.0, 0.0, 0.0, 0.0, 0.0, 0.0, 0.0, 1.7173973511395364E9, 0.0, 2024-06-02 23:49:11.139
222.0, -187500.02235174447, -16236.865965946434, -187500.02235174447, -187500.02235174447, -187500.02235174447, -187500.02235174447, -54206.042493110006, -187500.02235174447, 0.03, 0.152, 0.962, 192.0, 0.0, 0.0, 0.0, 0.0, 0.0, 0.0, 0.0, 0.0, 0.0, 1.7173973511395462E9, 0.0, 2024-06-02 23:49:11.139
223.0, -187500.02235174447, -16243.102102649464, -187500.02235174447, -187500.02235174447, -187500.02235174447, -187500.02235174447, -54216.68192347073, -187500.02235174447, 0.03, 0.152, 0.962, 192.0, 0.0, 0.0, 0.0, 0.0, 0.0, 0.0, 0.0, 0.0, 0.0, 1.717397351139556E9, 0.0, 2024-06-02 23:49:11.139
224.0, -187500.02235174447, -16225.310114063039, -187500.02235174447, -187500.02235174447, -187500.02235174447, -187500.02235174447, -54202.55562097498, -187500.02235174447, 0.03, 0.152, 0.962, 192.0, 0.0, 0.0, 0.0, 0.0, 0.0, 0.0, 0.0, 0.0, 0.0, 1.7173973511395707E9, 0.0, 2024-06-02 23:49:11.139
225.0, -187500.02235174447, -16212.30139879005, -187500.02235174447, -187500.02235174447, -187500.02235174447, -187500.02235174447, -54189.815126635454, -187500.02235174447, 0.03, 0.152, 0.962, 192.0, 0.0, 240.0, 4.0, 192.0, 30.0, 16.0, 0.0, 0.0, 0.0, 1.7173973511395807E9, 0.0, 2024-06-02 23:49:11.139
226.0, -187500.02235174447, -16213.530744735093, -187500.02235174447, -187500.02235174447, -187500.02235174447, -187500.02235174447, -54202.13093783033, -187500.02235174447, 0.03, 0.152, 0.962, 192.0, 0.0, 0.0, 0.0, 0.0, 0.0, 0.0, 0.0, 0.0, 0.0, 1.7173973511395907E9, 0.0, 2024-06-02 23:49:11.139
227.0, -187500.02235174447, -16223.700788462256, -187500.02235174447, -187500.02235174447, -187500.02235174447, -187500.02235174447, -54213.95501064718, -187500.02235174447, 0.03, 0.152, 0.962, 192.0, 0.0, 0.0, 0.0, 0.0, 0.0, 0.0, 0.0, 0.0, 0.0, 1.7173973511396003E9, 0.0, 2024-06-02 23:49:11.139
228.0, -187500.02235174447, -16230.45101528776, -187500.02235174447, -187500.02235174447, -187500.02235174447, -187500.02235174447, -54198.82287965094, -187500.02235174447, 0.03, 0.152, 0.962, 192.0, 0.0, 0.0, 0.0, 0.0, 0.0, 0.0, 0.0, 0.0, 0.0, 1.71739735113961E9, 0.0, 2024-06-02 23:49:11.139
229.0, -187500.02235174447, -16225.891259418877, -187500.02235174447, -187500.02235174447, -187500.02235174447, -187500.02235174447, -54186.84234462289, -187500.02235174447, 0.03, 0.152, 0.962, 192.0, 0.0, 0.0, 0.0, 0.0, 0.0, 0.0, 0.0, 0.0, 0.0, 1.7173973511396194E9, 0.0, 2024-06-02 23:49:11.139
230.0, -187500.02235174447, -16228.193489097774, -187500.02235174447, -187500.02235174447, -187500.02235174447, -187500.02235174447, -54192.050301080984, -187500.02235174447, 0.03, 0.152, 0.962, 192.0, 0.0, 0.0, 0.0, 0.0, 0.0, 0.0, 0.0, 0.0, 0.0, 1.7173973511396291E9, 0.0, 2024-06-02 23:49:11.139
231.0, -187500.02235174447, -16240.26343110364, -187500.02235174447, -187500.02235174447, -187500.02235174447, -187500.02235174447, -54205.52840298753, -187500.02235174447, 0.03, 0.152, 0.962, 192.0, 0.0, 0.0, 0.0, 0.0, 0.0, 0.0, 0.0, 0.0, 0.0, 1.717397351139639E9, 0.0, 2024-06-02 23:49:11.139
232.0, -187500.02235174447, -16240.777521226111, -187500.02235174447, -187500.02235174447, -187500.02235174447, -187500.02235174447, -54202.01917910805, -187500.02235174447, 0.03, 0.152, 0.962, 192.0, 0.0, 0.0, 0.0, 0.0, 0.0, 0.0, 0.0, 0.0, 0.0, 1.7173973511396487E9, 0.0, 2024-06-02 23:49:11.139
233.0, -187500.02235174447, -16228.126433864409, -187500.02235174447, -187500.02235174447, -187500.02235174447, -187500.02235174447, -54194.82191739344, -187500.02235174447, 0.03, 0.152, 0.962, 192.0, 0.0, 0.0, 0.0, 0.0, 0.0, 0.0, 0.0, 0.0, 0.0, 1.7173973511396585E9, 0.0, 2024-06-02 23:49:11.139
234.0, -187500.02235174447, -16220.25861981614, -187500.02235174447, -187500.02235174447, -187500.02235174447, -187500.02235174447, -54195.11249007136, -187500.02235174447, 0.03, 0.152, 0.962, 192.0, 0.0, 0.0, 0.0, 0.0, 0.0, 0.0, 0.0, 0.0, 0.0, 1.7173973511396675E9, 0.0, 2024-06-02 23:49:11.139
235.0, -187500.02235174447, -16221.73383495019, -187500.02235174447, -187500.02235174447, -187500.02235174447, -187500.02235174447, -54210.46813851215, -187500.02235174447, 0.03, 0.15, 0.96, 192.0, 0.0, 240.0, 4.0, 176.0, 30.0, 0.0, 0.0, 0.0, 0.0, 1.7173973511396773E9, 0.0, 2024-06-02 23:49:11.139
236.0, -187500.02235174447, -16221.309151805539, -187500.02235174447, -187500.02235174447, -187500.02235174447, -187500.02235174447, -54197.52647847253, -187500.02235174447, 0.03, 0.15, 0.96, 192.0, 0.0, 0.0, 0.0, 0.0, 0.0, 0.0, 0.0, 0.0, 0.0, 1.7173973511396868E9, 0.0, 2024-06-02 23:49:11.139
237.0, -187500.02235174447, -16220.817413427523, -187500.02235174447, -187500.02235174447, -187500.02235174447, -187500.02235174447, -54178.95217883017, -187500.02235174447, 0.03, 0.15, 0.96, 192.0, 0.0, 0.0, 0.0, 0.0, 0.0, 0.0, 0.0, 0.0, 0.0, 1.7173973511396964E9, 0.0, 2024-06-02 23:49:11.139
238.0, -187500.02235174447, -16212.860192401433, -187500.02235174447, -187500.02235174447, -187500.02235174447, -187500.02235174447, -54182.327292242924, -187500.02235174447, 0.03, 0.15, 0.96, 192.0, 0.0, 0.0, 0.0, 0.0, 0.0, 0.0, 0.0, 0.0, 0.0, 1.7173973511397061E9, 0.0, 2024-06-02 23:49:11.139
239.0, -187500.02235174447, -16218.78340468209, -187500.02235174447, -187500.02235174447, -187500.02235174447, -187500.02235174447, -54202.6450279528, -187500.02235174447, 0.03, 0.15, 0.96, 192.0, 0.0, 0.0, 0.0, 0.0, 0.0, 0.0, 0.0, 0.0, 0.0, 1.7173973511397529E9, 0.0, 2024-06-02 23:49:11.139
240.0, -187500.02235174447, -16232.909707177843, -187500.02235174447, -187500.02235174447, -187500.02235174447, -187500.02235174447, -54215.184356592225, -187500.02235174447, 0.03, 0.15, 0.96, 192.0, 0.0, 0.0, 0.0, 0.0, 0.0, 0.0, 0.0, 0.0, 0.0, 1.7173973516187007E9, 0.0, 2024-06-02 23:49:11.618
241.0, -187500.02235174447, -16233.110872877942, -187500.02235174447, -187500.02235174447, -187500.02235174447, -187500.02235174447, -54208.277667555536, -187500.02235174447, 0.03, 0.15, 0.96, 192.0, 0.0, 0.0, 0.0, 0.0, 0.0, 0.0, 0.0, 0.0, 0.0, 1.7173973516187413E9, 0.0, 2024-06-02 23:49:11.618
242.0, -187500.02235174447, -16230.07103563202, -187500.02235174447, -187500.02235174447, -187500.02235174447, -187500.02235174447, -54205.48369949862, -187500.02235174447, 0.03, 0.15, 0.96, 192.0, 0.0, 0.0, 0.0, 0.0, 0.0, 0.0, 0.0, 0.0, 0.0, 1.717397351618795E9, 0.0, 2024-06-02 23:49:11.618
243.0, -187500.02235174447, -16221.085634360987, -187500.02235174447, -187500.02235174447, -187500.02235174447, -187500.02235174447, -54219.61000199438, -187500.02235174447, 0.03, 0.15, 0.96, 192.0, 0.0, 0.0, 0.0, 0.0, 0.0, 0.0, 0.0, 0.0, 0.0, 1.7173973516188064E9, 0.0, 2024-06-02 23:49:11.618
244.0, -187500.02235174447, -16217.777576181601, -187500.02235174447, -187500.02235174447, -187500.02235174447, -187500.02235174447, -54216.32429555945, -187500.02235174447, 0.03, 0.15, 0.96, 192.0, 0.0, 0.0, 0.0, 0.0, 0.0, 0.0, 0.0, 0.0, 0.0, 1.7173973516188164E9, 0.0, 2024-06-02 23:49:11.618
245.0, -187500.02235174447, -16234.40727405635, -187500.02235174447, -187500.02235174447, -187500.02235174447, -187500.02235174447, -54187.714062656654, -187500.02235174447, 0.03, 0.154, 0.96, 192.0, 0.0, 240.0, 4.0, 208.0, 30.0, 0.0, 0.0, 0.0, 0.0, 1.7173973516188264E9, 0.0, 2024-06-02 23:49:11.618
246.0, -187500.02235174447, -16228.26054433114, -187500.02235174447, -187500.02235174447, -187500.02235174447, -187500.02235174447, -54193.57021970394, -187500.02235174447, 0.03, 0.154, 0.96, 192.0, 0.0, 0.0, 0.0, 0.0, 0.0, 0.0, 0.0, 0.0, 0.0, 1.7173973516188364E9, 0.0, 2024-06-02 23:49:11.618
247.0, -187500.02235174447, -16226.293590819072, -187500.02235174447, -187500.02235174447, -187500.02235174447, -187500.02235174447, -54221.30873457298, -187500.02235174447, 0.03, 0.154, 0.96, 192.0, 0.0, 0.0, 0.0, 0.0, 0.0, 0.0, 0.0, 0.0, 0.0, 1.7173973516188457E9, 0.0, 2024-06-02 23:49:11.618
248.0, -187500.02235174447, -16233.513204278137, -187500.02235174447, -187500.02235174447, -187500.02235174447, -187500.02235174447, -54227.45546429819, -187500.02235174447, 0.03, 0.154, 0.96, 192.0, 0.0, 0.0, 0.0, 0.0, 0.0, 0.0, 0.0, 0.0, 0.0, 1.717397351618855E9, 0.0, 2024-06-02 23:49:11.618
249.0, -187500.02235174447, -16234.451977545259, -187500.02235174447, -187500.02235174447, -187500.02235174447, -187500.02235174447, -54212.30098155749, -187500.02235174447, 0.03, 0.154, 0.96, 192.0, 0.0, 0.0, 0.0, 0.0, 0.0, 0.0, 0.0, 0.0, 0.0, 1.7173973516188643E9, 0.0, 2024-06-02 23:49:11.618
250.0, -187500.02235174447, -16229.981628654199, -187500.02235174447, -187500.02235174447, -187500.02235174447, -187500.02235174447, -54199.00169360658, -187500.02235174447, 0.03, 0.154, 0.96, 192.0, 0.0, 0.0, 0.0, 0.0, 0.0, 0.0, 0.0, 0.0, 0.0, 1.717397351618874E9, 0.0, 2024-06-02 23:49:11.618
251.0, -187500.02235174447, -16229.624000742913, -187500.02235174447, -187500.02235174447, -187500.02235174447, -187500.02235174447, -54214.849080425396, -187500.02235174447, 0.03, 0.154, 0.96, 192.0, 0.0, 0.0, 0.0, 0.0, 0.0, 0.0, 0.0, 0.0, 0.0, 1.7173973516188836E9, 0.0, 2024-06-02 23:49:11.618
252.0, -187500.02235174447, -16229.244021087174, -187500.02235174447, -187500.02235174447, -187500.02235174447, -187500.02235174447, -54230.47294979965, -187500.02235174447, 0.03, 0.154, 0.96, 192.0, 0.0, 0.0, 0.0, 0.0, 0.0, 0.0, 0.0, 0.0, 0.0, 1.717397351618893E9, 0.0, 2024-06-02 23:49:11.618
253.0, -187500.02235174447, -16219.096329104465, -187500.02235174447, -187500.02235174447, -187500.02235174447, -187500.02235174447, -54216.45840602618, -187500.02235174447, 0.03, 0.154, 0.96, 192.0, 0.0, 0.0, 0.0, 0.0, 0.0, 0.0, 0.0, 0.0, 0.0, 1.717397351618902E9, 0.0, 2024-06-02 23:49:11.618
254.0, -187500.02235174447, -16229.02050364262, -187500.02235174447, -187500.02235174447, -187500.02235174447, -187500.02235174447, -54201.23686805211, -187500.02235174447, 0.032, 0.15, 0.964, 192.0, 1.0, 0.0, 4.0, 176.0, 30.0, 32.0, 0.0, 0.0, 0.0, 1.717397351618938E9, 0.0, 2024-06-02 23:49:11.618
255.0, -187500.02235174447, -16228.796986198067, -187500.02235174447, -187500.02235174447, -187500.02235174447, -187500.02235174447, -54214.133824602824, -187500.02235174447, 0.032, 0.15, 0.964, 192.0, 0.0, 0.0, 0.0, 0.0, 0.0, 0.0, 0.0, 0.0, 0.0, 1.7173973516189485E9, 0.0, 2024-06-02 23:49:11.618
0.0, -187500.02235174447, -16227.187660597285, -187500.02235174447, -187500.02235174447, -187500.02235174447, -187500.02235174447, -54228.50599628759, -187500.02235174447, 0.032, 0.15, 0.964, 192.0, 0.0, 0.0, 0.0, 0.0, 0.0, 0.0, 0.0, 0.0, 0.0, 1.717397351618958E9, 0.0, 2024-06-02 23:49:11.618
1.0, -187500.02235174447, -16223.991361140175, -187500.02235174447, -187500.02235174447, -187500.02235174447, -187500.02235174447, -54202.22034480815, -187500.02235174447, 0.032, 0.15, 0.964, 192.0, 0.0, 0.0, 0.0, 0.0, 0.0, 0.0, 0.0, 0.0, 0.0, 1.7173973516189675E9, 0.0, 2024-06-02 23:49:11.618
2.0, -187500.02235174447, -16231.255678088151, -187500.02235174447, -187500.02235174447, -187500.02235174447, -187500.02235174447, -54175.53236192851, -187500.02235174447, 0.032, 0.15, 0.964, 192.0, 0.0, 0.0, 0.0, 0.0, 0.0, 0.0, 0.0, 0.0, 0.0, 1.7173973516189768E9, 0.0, 2024-06-02 23:49:11.618
3.0, -187500.02235174447, -16254.03210568811, -187500.02235174447, -187500.02235174447, -187500.02235174447, -187500.02235174447, -54188.406966734765, -187500.02235174447, 0.032, 0.15, 0.964, 192.0, 0.0, 0.0, 0.0, 0.0, 0.0, 0.0, 0.0, 0.0, 0.0, 1.717397351618986E9, 0.0, 2024-06-02 23:49:11.618
4.0, -187500.02235174447, -16264.492722093193, -187500.02235174447, -187500.02235174447, -187500.02235174447, -187500.02235174447, -54197.30296102798, -187500.02235174447, 0.032, 0.15, 0.964, 192.0, 0.0, 0.0, 0.0, 0.0, 0.0, 0.0, 0.0, 0.0, 0.0, 1.7173973516189952E9, 0.0, 2024-06-02 23:49:11.618
5.0, -187500.02235174447, -16261.184663913808, -187500.02235174447, -187500.02235174447, -187500.02235174447, -187500.02235174447, -54183.71310039915, -187500.02235174447, 0.032, 0.15, 0.964, 192.0, 0.0, 0.0, 0.0, 0.0, 0.0, 0.0, 0.0, 0.0, 0.0, 1.7173973516190045E9, 0.0, 2024-06-02 23:49:11.619
6.0, -187500.02235174447, -16261.542291825092, -187500.02235174447, -187500.02235174447, -187500.02235174447, -187500.02235174447, -54138.31670741042, -187500.02235174447, 0.032, 0.15, 0.964, 192.0, 0.0, 0.0, 0.0, 0.0, 0.0, 0.0, 0.0, 0.0, 0.0, 1.7173973516190135E9, 0.0, 2024-06-02 23:49:11.619
7.0, -187500.02235174447, -16263.8892249929, -187500.02235174447, -187500.02235174447, -187500.02235174447, -187500.02235174447, -54123.72101828111, -187500.02235174447, 0.032, 0.15, 0.964, 192.0, 0.0, 0.0, 0.0, 0.0, 0.0, 0.0, 0.0, 0.0, 0.0, 1.717397351619024E9, 0.0, 2024-06-02 23:49:11.619
8.0, -187500.02235174447, -16288.207922960273, -187500.02235174447, -187500.02235174447, -187500.02235174447, -187500.02235174447, -54133.15345444125, -187500.02235174447, 0.026000000000000002, 0.15, 0.964, 192.0, 0.0, 208.0, 4.0, 176.0, 30.0, 32.0, 0.0, 0.0, 0.0, 1.7173973516190333E9, 0.0, 2024-06-02 23:49:11.619
9.0, -187500.02235174447, -16301.730728355735, -187500.02235174447, -187500.02235174447, -187500.02235174447, -187500.02235174447, -54118.021323445006, -187500.02235174447, 0.026000000000000002, 0.15, 0.964, 192.0, 0.0, 0.0, 0.0, 0.0, 0.0, 0.0, 0.0, 0.0, 0.0, 1.717397351619043E9, 0.0, 2024-06-02 23:49:11.619
10.0, -187500.02235174447, -16302.043652778108, -187500.02235174447, -187500.02235174447, -187500.02235174447, -187500.02235174447, -54089.925180664686, -187500.02235174447, 0.026000000000000002, 0.15, 0.964, 192.0, 0.0, 0.0, 0.0, 0.0, 0.0, 0.0, 0.0, 0.0, 0.0, 1.7173973516190524E9, 0.0, 2024-06-02 23:49:11.619
11.0, -187500.02235174447, -16307.005740047187, -187500.02235174447, -187500.02235174447, -187500.02235174447, -187500.02235174447, -54077.43055551417, -187500.02235174447, 0.026000000000000002, 0.15, 0.964, 192.0, 0.0, 0.0, 0.0, 0.0, 0.0, 0.0, 0.0, 0.0, 0.0, 1.7173973516190617E9, 0.0, 2024-06-02 23:49:11.619
12.0, -187500.02235174447, -16325.401225733904, -187500.02235174447, -187500.02235174447, -187500.02235174447, -187500.02235174447, -54091.89213417675, -187500.02235174447, 0.026000000000000002, 0.15, 0.964, 192.0, 0.0, 0.0, 0.0, 0.0, 0.0, 0.0, 0.0, 0.0, 0.0, 1.7173973516190708E9, 0.0, 2024-06-02 23:49:11.619
13.0, -187500.02235174447, -16340.354542774505, -187500.02235174447, -187500.02235174447, -187500.02235174447, -187500.02235174447, -54092.003892899025, -187500.02235174447, 0.026000000000000002, 0.15, 0.964, 192.0, 0.0, 0.0, 0.0, 0.0, 0.0, 0.0, 0.0, 0.0, 0.0, 1.7173973516190853E9, 0.0, 2024-06-02 23:49:11.619
14.0, -187500.02235174447, -16344.310801543093, -187500.02235174447, -187500.02235174447, -187500.02235174447, -187500.02235174447, -54059.03506982745, -187500.02235174447, 0.026000000000000002, 0.15, 0.964, 192.0, 0.0, 0.0, 0.0, 0.0, 0.0, 0.0, 0.0, 0.0, 0.0, 1.717397351619095E9, 0.0, 2024-06-02 23:49:11.619
15.0, -187500.02235174447, -16352.46918826928, -187500.02235174447, -187500.02235174447, -187500.02235174447, -187500.02235174447, -54041.31013647439, -187500.02235174447, 0.026000000000000002, 0.15, 0.964, 192.0, 0.0, 0.0, 0.0, 0.0, 0.0, 0.0, 0.0, 0.0, 0.0, 1.7173973516191044E9, 0.0, 2024-06-02 23:49:11.619
16.0, -187500.02235174447, -16364.539130275147, -187500.02235174447, -187500.02235174447, -187500.02235174447, -187500.02235174447, -54052.97774708006, -187500.02235174447, 0.026000000000000002, 0.15, 0.964, 192.0, 0.0, 0.0, 0.0, 0.0, 0.0, 0.0, 0.0, 0.0, 0.0, 1.7173973516191137E9, 0.0, 2024-06-02 23:49:11.619
17.0, -187500.02235174447, -16376.497313558737, -187500.02235174447, -187500.02235174447, -187500.02235174447, -187500.02235174447, -54060.1079535613, -187500.02235174447, 0.026000000000000002, 0.15, 0.964, 192.0, 0.0, 0.0, 0.0, 0.0, 0.0, 0.0, 0.0, 0.0, 0.0, 1.717397351619123E9, 0.0, 2024-06-02 23:49:11.619
18.0, -187500.02235174447, -16367.601319265525, -187500.02235174447, -187500.02235174447, -187500.02235174447, -187500.02235174447, -54040.416066696176, -187500.02235174447, 0.028, 0.154, 0.962, 192.0, 0.0, 224.0, 4.0, 208.0, 30.0, 16.0, 0.0, 0.0, 0.0, 1.7173973516191323E9, 0.0, 2024-06-02 23:49:11.619
19.0, -187500.02235174447, -16363.086266885552, -187500.02235174447, -187500.02235174447, -187500.02235174447, -187500.02235174447, -54022.48996764302, -187500.02235174447, 0.028, 0.154, 0.962, 192.0, 0.0, 0.0, 0.0, 0.0, 0.0, 0.0, 0.0, 0.0, 0.0, 1.7173973516191425E9, 0.0, 2024-06-02 23:49:11.619
20.0, -187500.02235174447, -16353.631478980957, -187500.02235174447, -187500.02235174447, -187500.02235174447, -187500.02235174447, -54026.714447345075, -187500.02235174447, 0.028, 0.154, 0.962, 192.0, 0.0, 0.0, 0.0, 0.0, 0.0, 0.0, 0.0, 0.0, 0.0, 1.7173973516191518E9, 0.0, 2024-06-02 23:49:11.619
21.0, -187500.02235174447, -16344.579022476557, -187500.02235174447, -187500.02235174447, -187500.02235174447, -187500.02235174447, -54031.6541828697, -187500.02235174447, 0.028, 0.154, 0.962, 192.0, 0.0, 0.0, 0.0, 0.0, 0.0, 0.0, 0.0, 0.0, 0.0, 1.7173973516191616E9, 0.0, 2024-06-02 23:49:11.619
22.0, -187500.02235174447, -16348.244708567228, -187500.02235174447, -187500.02235174447, -187500.02235174447, -187500.02235174447, -54021.86411879827, -187500.02235174447, 0.028, 0.154, 0.962, 192.0, 0.0, 0.0, 0.0, 0.0, 0.0, 0.0, 0.0, 0.0, 0.0, 1.717397351619171E9, 0.0, 2024-06-02 23:49:11.619
23.0, -187500.02235174447, -16345.696609699324, -187500.02235174447, -187500.02235174447, -187500.02235174447, -187500.02235174447, -54000.62996156573, -187500.02235174447, 0.028, 0.154, 0.962, 192.0, 0.0, 0.0, 0.0, 0.0, 0.0, 0.0, 0.0, 0.0, 0.0, 1.71739735161918E9, 0.0, 2024-06-02 23:49:11.619
24.0, -187500.02235174447, -16339.102845085008, -187500.02235174447, -187500.02235174447, -187500.02235174447, -187500.02235174447, -54003.558040089374, -187500.02235174447, 0.028, 0.154, 0.962, 192.0, 0.0, 0.0, 0.0, 0.0, 0.0, 0.0, 0.0, 0.0, 0.0, 1.7173973516191895E9, 0.0, 2024-06-02 23:49:11.619
25.0, -187500.02235174447, -16361.074609884574, -187500.02235174447, -187500.02235174447, -187500.02235174447, -187500.02235174447, -54038.00207829501, -187500.02235174447, 0.028, 0.154, 0.962, 192.0, 0.0, 0.0, 0.0, 0.0, 0.0, 0.0, 0.0, 0.0, 0.0, 1.7173973516191988E9, 0.0, 2024-06-02 23:49:11.619
26.0, -187500.02235174447, -16375.267967613694, -187500.02235174447, -187500.02235174447, -187500.02235174447, -187500.02235174447, -54047.4568661996, -187500.02235174447, 0.028, 0.154, 0.962, 192.0, 0.0, 0.0, 0.0, 0.0, 0.0, 0.0, 0.0, 0.0, 0.0, 1.717397351619208E9, 0.0, 2024-06-02 23:49:11.619
27.0, -187500.02235174447, -16369.456514055315, -187500.02235174447, -187500.02235174447, -187500.02235174447, -187500.02235174447, -54035.96806954957, -187500.02235174447, 0.028, 0.154, 0.962, 192.0, 0.0, 0.0, 0.0, 0.0, 0.0, 0.0, 0.0, 0.0, 0.0, 1.717397351619223E9, 0.0, 2024-06-02 23:49:11.619
28.0, -187500.02235174447, -16350.099903357019, -187500.02235174447, -187500.02235174447, -187500.02235174447, -187500.02235174447, -54035.61044163829, -187500.02235174447, 0.026000000000000002, 0.152, 0.966, 192.0, 0.0, 208.0, 4.0, 192.0, 30.0, 48.0, 0.0, 0.0, 0.0, 1.7173973516192327E9, 0.0, 2024-06-02 23:49:11.619
29.0, -187500.02235174447, -16338.342885773527, -187500.02235174447, -187500.02235174447, -187500.02235174447, -187500.02235174447, -54035.677496871656, -187500.02235174447, 0.026000000000000002, 0.152, 0.966, 192.0, 0.0, 0.0, 0.0, 0.0, 0.0, 0.0, 0.0, 0.0, 0.0, 1.7173973516192424E9, 0.0, 2024-06-02 23:49:11.619
30.0, -187500.02235174447, -16354.749066203722, -187500.02235174447, -187500.02235174447, -187500.02235174447, -187500.02235174447, -54025.999191522504, -187500.02235174447, 0.026000000000000002, 0.152, 0.966, 192.0, 0.0, 0.0, 0.0, 0.0, 0.0, 0.0, 0.0, 0.0, 0.0, 1.7173973516192515E9, 0.0, 2024-06-02 23:49:11.619
31.0, -187500.02235174447, -16355.352563304015, -187500.02235174447, -187500.02235174447, -187500.02235174447, -187500.02235174447, -54013.32575241635, -187500.02235174447, 0.026000000000000002, 0.152, 0.966, 192.0, 0.0, 0.0, 0.0, 0.0, 0.0, 0.0, 0.0, 0.0, 0.0, 1.7173973516192608E9, 0.0, 2024-06-02 23:49:11.619
32.0, -187500.02235174447, -16341.38272301945, -187500.02235174447, -187500.02235174447, -187500.02235174447, -187500.02235174447, -54007.760168046974, -187500.02235174447, 0.026000000000000002, 0.152, 0.966, 192.0, 0.0, 0.0, 0.0, 0.0, 0.0, 0.0, 0.0, 0.0, 0.0, 1.71739735161927E9, 0.0, 2024-06-02 23:49:11.619
33.0, -187500.02235174447, -16343.23791780924, -187500.02235174447, -187500.02235174447, -187500.02235174447, -187500.02235174447, -54033.419970681665, -187500.02235174447, 0.026000000000000002, 0.152, 0.966, 192.0, 0.0, 0.0, 0.0, 0.0, 0.0, 0.0, 0.0, 0.0, 0.0, 1.7173973516192791E9, 0.0, 2024-06-02 23:49:11.619
34.0, -187500.02235174447, -16362.415714551893, -187500.02235174447, -187500.02235174447, -187500.02235174447, -187500.02235174447, -54034.58226139334, -187500.02235174447, 0.026000000000000002, 0.152, 0.966, 192.0, 0.0, 0.0, 0.0, 0.0, 0.0, 0.0, 0.0, 0.0, 0.0, 1.7173973516192887E9, 0.0, 2024-06-02 23:49:11.619
35.0, -187500.02235174447, -16350.457531268303, -187500.02235174447, -187500.02235174447, -187500.02235174447, -187500.02235174447, -53999.802947020886, -187500.02235174447, 0.026000000000000002, 0.152, 0.966, 192.0, 0.0, 0.0, 0.0, 0.0, 0.0, 0.0, 0.0, 0.0, 0.0, 1.717397351619298E9, 0.0, 2024-06-02 23:49:11.619
36.0, -187500.02235174447, -16338.499347984714, -187500.02235174447, -187500.02235174447, -187500.02235174447, -187500.02235174447, -54002.30634239988, -187500.02235174447, 0.026000000000000002, 0.152, 0.966, 192.0, 0.0, 0.0, 0.0, 0.0, 0.0, 0.0, 0.0, 0.0, 0.0, 1.7173973516193073E9, 0.0, 2024-06-02 23:49:11.619
37.0, -187500.02235174447, -16347.149473088917, -187500.02235174447, -187500.02235174447, -187500.02235174447, -187500.02235174447, -54031.72123810306, -187500.02235174447, 0.026000000000000002, 0.152, 0.966, 192.0, 0.0, 0.0, 0.0, 0.0, 0.0, 0.0, 0.0, 0.0, 0.0, 1.7173973516193163E9, 0.0, 2024-06-02 23:49:11.619
38.0, -187500.02235174447, -16354.927880159365, -187500.02235174447, -187500.02235174447, -187500.02235174447, -187500.02235174447, -54039.70081087361, -187500.02235174447, 0.028, 0.154, 0.968, 192.0, 0.0, 224.0, 4.0, 208.0, 30.0, 64.0, 0.0, 0.0, 0.0, 1.7173973516193256E9, 0.0, 2024-06-02 23:49:11.619
39.0, -187500.02235174447, -16328.66458042438, -187500.02235174447, -187500.02235174447, -187500.02235174447, -187500.02235174447, -54003.423929622644, -187500.02235174447, 0.028, 0.154, 0.968, 192.0, 0.0, 0.0, 0.0, 0.0, 0.0, 0.0, 0.0, 0.0, 0.0, 1.7173973516193352E9, 0.0, 2024-06-02 23:49:11.619
40.0, -187500.02235174447, -16322.629609421447, -187500.02235174447, -187500.02235174447, -187500.02235174447, -187500.02235174447, -53975.28308335342, -187500.02235174447, 0.028, 0.154, 0.968, 192.0, 0.0, 0.0, 0.0, 0.0, 0.0, 0.0, 0.0, 0.0, 0.0, 1.7173973516193442E9, 0.0, 2024-06-02 23:49:11.619
41.0, -187500.02235174447, -16336.197118305818, -187500.02235174447, -187500.02235174447, -187500.02235174447, -187500.02235174447, -53998.21597316456, -187500.02235174447, 0.028, 0.154, 0.968, 192.0, 0.0, 0.0, 0.0, 0.0, 0.0, 0.0, 0.0, 0.0, 0.0, 1.7173973516193538E9, 0.0, 2024-06-02 23:49:11.619
42.0, -187500.02235174447, -16346.098941099519, -187500.02235174447, -187500.02235174447, -187500.02235174447, -187500.02235174447, -54022.17704322065, -187500.02235174447, 0.028, 0.154, 0.968, 192.0, 0.0, 0.0, 0.0, 0.0, 0.0, 0.0, 0.0, 0.0, 0.0, 1.7173973516193671E9, 0.0, 2024-06-02 23:49:11.619
43.0, -187500.02235174447, -16344.7578364322, -187500.02235174447, -187500.02235174447, -187500.02235174447, -187500.02235174447, -54018.667819341164, -187500.02235174447, 0.028, 0.154, 0.968, 192.0, 0.0, 0.0, 0.0, 0.0, 0.0, 0.0, 0.0, 0.0, 0.0, 1.7173973516193764E9, 0.0, 2024-06-02 23:49:11.619
44.0, -187500.02235174447, -16344.780188176655, -187500.02235174447, -187500.02235174447, -187500.02235174447, -187500.02235174447, -54011.40350239319, -187500.02235174447, 0.028, 0.154, 0.968, 192.0, 0.0, 0.0, 0.0, 0.0, 0.0, 0.0, 0.0, 0.0, 0.0, 1.7173973516193855E9, 0.0, 2024-06-02 23:49:11.619
45.0, -187500.02235174447, -16340.846281152522, -187500.02235174447, -187500.02235174447, -187500.02235174447, -187500.02235174447, -54013.415159394164, -187500.02235174447, 0.028, 0.154, 0.968, 192.0, 0.0, 0.0, 0.0, 0.0, 0.0, 0.0, 0.0, 0.0, 0.0, 1.7173973516193948E9, 0.0, 2024-06-02 23:49:11.619
46.0, -187500.02235174447, -16335.7053799278, -187500.02235174447, -187500.02235174447, -187500.02235174447, -187500.02235174447, -54022.579374620844, -187500.02235174447, 0.028, 0.154, 0.968, 192.0, 0.0, 0.0, 0.0, 0.0, 0.0, 0.0, 0.0, 0.0, 0.0, 1.7173973516194038E9, 0.0, 2024-06-02 23:49:11.619
47.0, -187500.02235174447, -16328.508118213193, -187500.02235174447, -187500.02235174447, -187500.02235174447, -187500.02235174447, -54012.56579310486, -187500.02235174447, 0.028, 0.154, 0.968, 192.0, 0.0, 0.0, 0.0, 0.0, 0.0, 0.0, 0.0, 0.0, 0.0, 1.7173973516194136E9, 0.0, 2024-06-02 23:49:11.619
48.0, -187500.02235174447, -16331.257382781194, -187500.02235174447, -187500.02235174447, -187500.02235174447, -187500.02235174447, -53997.88069699773, -187500.02235174447, 0.028, 0.154, 0.97, 192.0, 0.0, 224.0, 4.0, 208.0, 30.0, 80.0, 0.0, 0.0, 0.0, 1.717397351619423E9, 0.0, 2024-06-02 23:49:11.619
49.0, -187500.02235174447, -16360.895795928933, -187500.02235174447, -187500.02235174447, -187500.02235174447, -187500.02235174447, -54026.37917117825, -187500.02235174447, 0.028, 0.154, 0.97, 192.0, 0.0, 0.0, 0.0, 0.0, 0.0, 0.0, 0.0, 0.0, 0.0, 1.7173973516194324E9, 0.0, 2024-06-02 23:49:11.619
50.0, -187500.02235174447, -16377.927825203877, -187500.02235174447, -187500.02235174447, -187500.02235174447, -187500.02235174447, -54055.369383736775, -187500.02235174447, 0.028, 0.154, 0.97, 192.0, 0.0, 0.0, 0.0, 0.0, 0.0, 0.0, 0.0, 0.0, 0.0, 1.7173973516194415E9, 0.0, 2024-06-02 23:49:11.619
51.0, -187500.02235174447, -16367.62367100998, -187500.02235174447, -187500.02235174447, -187500.02235174447, -187500.02235174447, -54049.13324703375, -187500.02235174447, 0.028, 0.154, 0.97, 192.0, 0.0, 0.0, 0.0, 0.0, 0.0, 0.0, 0.0, 0.0, 0.0, 1.717397351619451E9, 0.0, 2024-06-02 23:49:11.619
52.0, -187500.02235174447, -16350.8598626685, -187500.02235174447, -187500.02235174447, -187500.02235174447, -187500.02235174447, -54034.24698522651, -187500.02235174447, 0.028, 0.154, 0.97, 192.0, 0.0, 0.0, 0.0, 0.0, 0.0, 0.0, 0.0, 0.0, 0.0, 1.71739735161946E9, 0.0, 2024-06-02 23:49:11.619
53.0, -187500.02235174447, -16331.503251970204, -187500.02235174447, -187500.02235174447, -187500.02235174447, -187500.02235174447, -54030.67070611366, -187500.02235174447, 0.028, 0.154, 0.97, 192.0, 0.0, 0.0, 0.0, 0.0, 0.0, 0.0, 0.0, 0.0, 0.0, 1.7173973516194694E9, 0.0, 2024-06-02 23:49:11.619
54.0, -187500.02235174447, -16331.771472903667, -187500.02235174447, -187500.02235174447, -187500.02235174447, -187500.02235174447, -54031.56477589188, -187500.02235174447, 0.028, 0.154, 0.97, 192.0, 0.0, 0.0, 0.0, 0.0, 0.0, 0.0, 0.0, 0.0, 0.0, 1.717397351619479E9, 0.0, 2024-06-02 23:49:11.619
55.0, -187500.02235174447, -16334.632496193946, -187500.02235174447, -187500.02235174447, -187500.02235174447, -187500.02235174447, -54019.74070307502, -187500.02235174447, 0.028, 0.154, 0.97, 192.0, 0.0, 0.0, 0.0, 0.0, 0.0, 0.0, 0.0, 0.0, 0.0, 1.7173973516194885E9, 0.0, 2024-06-02 23:49:11.619
56.0, -187500.02235174447, -16327.725807157256, -187500.02235174447, -187500.02235174447, -187500.02235174447, -187500.02235174447, -53996.8972202417, -187500.02235174447, 0.028, 0.154, 0.97, 192.0, 0.0, 0.0, 0.0, 0.0, 0.0, 0.0, 0.0, 0.0, 0.0, 1.7173973516194973E9, 0.0, 2024-06-02 23:49:11.619
57.0, -187500.02235174447, -16350.010496379198, -187500.02235174447, -187500.02235174447, -187500.02235174447, -187500.02235174447, -53997.94775223109, -187500.02235174447, 0.028, 0.154, 0.97, 192.0, 0.0, 0.0, 0.0, 0.0, 0.0, 0.0, 0.0, 0.0, 0.0, 1.717397351619511E9, 0.0, 2024-06-02 23:49:11.619
58.0, -187500.02235174447, -16348.200005078317, -187500.02235174447, -187500.02235174447, -187500.02235174447, -187500.02235174447, -54032.19062473663, -187500.02235174447, 0.03, 0.154, 0.968, 192.0, 0.0, 240.0, 4.0, 208.0, 30.0, 64.0, 0.0, 0.0, 0.0, 1.71739735161952E9, 0.0, 2024-06-02 23:49:11.619
59.0, -187500.02235174447, -16317.04167330762, -187500.02235174447, -187500.02235174447, -187500.02235174447, -187500.02235174447, -54024.747493833005, -187500.02235174447, 0.03, 0.154, 0.968, 192.0, 0.0, 0.0, 0.0, 0.0, 0.0, 0.0, 0.0, 0.0, 0.0, 1.7173973516195295E9, 0.0, 2024-06-02 23:49:11.619
60.0, -187500.02235174447, -16308.905638325889, -187500.02235174447, -187500.02235174447, -187500.02235174447, -187500.02235174447, -53996.80781326388, -187500.02235174447, 0.03, 0.154, 0.968, 192.0, 0.0, 0.0, 0.0, 0.0, 0.0, 0.0, 0.0, 0.0, 0.0, 1.7173973516195393E9, 0.0, 2024-06-02 23:49:11.619
61.0, -187500.02235174447, -16338.164071817884, -187500.02235174447, -187500.02235174447, -187500.02235174447, -187500.02235174447, -53996.718406286054, -187500.02235174447, 0.03, 0.154, 0.968, 192.0, 0.0, 0.0, 0.0, 0.0, 0.0, 0.0, 0.0, 0.0, 0.0, 1.7173973516195483E9, 0.0, 2024-06-02 23:49:11.619
62.0, -187500.02235174447, -16375.558540291613, -187500.02235174447, -187500.02235174447, -187500.02235174447, -187500.02235174447, -54023.920479288165, -187500.02235174447, 0.03, 0.154, 0.968, 192.0, 0.0, 0.0, 0.0, 0.0, 0.0, 0.0, 0.0, 0.0, 0.0, 1.7173973516195576E9, 0.0, 2024-06-02 23:49:11.619
63.0, -187500.02235174447, -16384.25336888473, -187500.02235174447, -187500.02235174447, -187500.02235174447, -187500.02235174447, -54032.503549159, -187500.02235174447, 0.03, 0.154, 0.968, 192.0, 0.0, 0.0, 0.0, 0.0, 0.0, 0.0, 0.0, 0.0, 0.0, 1.717397351619567E9, 0.0, 2024-06-02 23:49:11.619
64.0, -187500.02235174447, -16376.944348447842, -187500.02235174447, -187500.02235174447, -187500.02235174447, -187500.02235174447, -54005.92732500164, -187500.02235174447, 0.03, 0.154, 0.968, 192.0, 0.0, 0.0, 0.0, 0.0, 0.0, 0.0, 0.0, 0.0, 0.0, 1.7173973516195762E9, 0.0, 2024-06-02 23:49:11.619
65.0, -187500.02235174447, -16364.494426786236, -187500.02235174447, -187500.02235174447, -187500.02235174447, -187500.02235174447, -54007.08961571332, -187500.02235174447, 0.03, 0.154, 0.968, 192.0, 0.0, 0.0, 0.0, 0.0, 0.0, 0.0, 0.0, 0.0, 0.0, 1.717397351619806E9, 0.0, 2024-06-02 23:49:11.619
66.0, -187500.02235174447, -16352.826816180566, -187500.02235174447, -187500.02235174447, -187500.02235174447, -187500.02235174447, -54024.59103162182, -187500.02235174447, 0.03, 0.154, 0.968, 192.0, 0.0, 0.0, 0.0, 0.0, 0.0, 0.0, 0.0, 0.0, 0.0, 1.7173973516198165E9, 0.0, 2024-06-02 23:49:11.619
67.0, -187500.02235174447, -16361.387534306949, -187500.02235174447, -187500.02235174447, -187500.02235174447, -187500.02235174447, -54043.92529057566, -187500.02235174447, 0.03, 0.154, 0.968, 192.0, 0.0, 0.0, 0.0, 0.0, 0.0, 0.0, 0.0, 0.0, 0.0, 1.717397351619826E9, 0.0, 2024-06-02 23:49:11.619
68.0, -187500.02235174447, -16376.631424025469, -187500.02235174447, -187500.02235174447, -187500.02235174447, -187500.02235174447, -54042.025392296964, -187500.02235174447, 0.026000000000000002, 0.154, 0.964, 192.0, 0.0, 208.0, 4.0, 208.0, 30.0, 32.0, 0.0, 0.0, 0.0, 1.7173973516198351E9, 0.0, 2024-06-02 23:49:11.619
69.0, -187500.02235174447, -16353.720885958779, -187500.02235174447, -187500.02235174447, -187500.02235174447, -187500.02235174447, -54024.36751417727, -187500.02235174447, 0.026000000000000002, 0.154, 0.964, 192.0, 0.0, 0.0, 0.0, 0.0, 0.0, 0.0, 0.0, 0.0, 0.0, 1.717397351619845E9, 0.0, 2024-06-02 23:49:11.619
70.0, -187500.02235174447, -16346.411865521894, -187500.02235174447, -187500.02235174447, -187500.02235174447, -187500.02235174447, -54026.781502578444, -187500.02235174447, 0.026000000000000002, 0.154, 0.964, 192.0, 0.0, 0.0, 0.0, 0.0, 0.0, 0.0, 0.0, 0.0, 0.0, 1.7173973516198542E9, 0.0, 2024-06-02 23:49:11.619
71.0, -187500.02235174447, -16347.082417855552, -187500.02235174447, -187500.02235174447, -187500.02235174447, -187500.02235174447, -54037.21976723907, -187500.02235174447, 0.026000000000000002, 0.154, 0.964, 192.0, 0.0, 0.0, 0.0, 0.0, 0.0, 0.0, 0.0, 0.0, 0.0, 1.7173973516198635E9, 0.0, 2024-06-02 23:49:11.619
72.0, -187500.02235174447, -16341.85210965301, -187500.02235174447, -187500.02235174447, -187500.02235174447, -187500.02235174447, -54031.63183112524, -187500.02235174447, 0.026000000000000002, 0.154, 0.964, 192.0, 0.0, 0.0, 0.0, 0.0, 0.0, 0.0, 0.0, 0.0, 0.0, 1.71739735161988E9, 0.0, 2024-06-02 23:49:11.619
73.0, -187500.02235174447, -16351.552766746614, -187500.02235174447, -187500.02235174447, -187500.02235174447, -187500.02235174447, -54025.105121744295, -187500.02235174447, 0.026000000000000002, 0.154, 0.964, 192.0, 0.0, 0.0, 0.0, 0.0, 0.0, 0.0, 0.0, 0.0, 0.0, 1.7173973516198897E9, 0.0, 2024-06-02 23:49:11.619
74.0, -187500.02235174447, -16354.682010970357, -187500.02235174447, -187500.02235174447, -187500.02235174447, -187500.02235174447, -54027.40735142319, -187500.02235174447, 0.026000000000000002, 0.154, 0.964, 192.0, 0.0, 0.0, 0.0, 0.0, 0.0, 0.0, 0.0, 0.0, 0.0, 1.7173973516198993E9, 0.0, 2024-06-02 23:49:11.619
75.0, -187500.02235174447, -16356.358391804504, -187500.02235174447, -187500.02235174447, -187500.02235174447, -187500.02235174447, -54033.93406080414, -187500.02235174447, 0.026000000000000002, 0.154, 0.964, 192.0, 0.0, 0.0, 0.0, 0.0, 0.0, 0.0, 0.0, 0.0, 0.0, 1.717397351619908E9, 0.0, 2024-06-02 23:49:11.619
76.0, -187500.02235174447, -16346.367162032982, -187500.02235174447, -187500.02235174447, -187500.02235174447, -187500.02235174447, -54019.293668185914, -187500.02235174447, 0.026000000000000002, 0.154, 0.964, 192.0, 0.0, 0.0, 0.0, 0.0, 0.0, 0.0, 0.0, 0.0, 0.0, 1.7173973516199176E9, 0.0, 2024-06-02 23:49:11.619
77.0, -187500.02235174447, -16339.639286951935, -187500.02235174447, -187500.02235174447, -187500.02235174447, -187500.02235174447, -53994.30441788488, -187500.02235174447, 0.026000000000000002, 0.154, 0.964, 192.0, 0.0, 0.0, 0.0, 0.0, 0.0, 0.0, 0.0, 0.0, 0.0, 1.7173973516199267E9, 0.0, 2024-06-02 23:49:11.619
78.0, -187500.02235174447, -16342.142682330928, -187500.02235174447, -187500.02235174447, -187500.02235174447, -187500.02235174447, -53995.31024638537, -187500.02235174447, 0.026000000000000002, 0.158, 0.96, 192.0, 0.0, 208.0, 4.0, 240.0, 30.0, 0.0, 0.0, 0.0, 0.0, 1.717397351619936E9, 0.0, 2024-06-02 23:49:11.619
79.0, -187500.02235174447, -16338.856975895998, -187500.02235174447, -187500.02235174447, -187500.02235174447, -187500.02235174447, -54014.3986361502, -187500.02235174447, 0.026000000000000002, 0.158, 0.96, 192.0, 0.0, 0.0, 0.0, 0.0, 0.0, 0.0, 0.0, 0.0, 0.0, 1.7173973516199455E9, 0.0, 2024-06-02 23:49:11.619
80.0, -187500.02235174447, -16341.628592208457, -187500.02235174447, -187500.02235174447, -187500.02235174447, -187500.02235174447, -54027.049723511904, -187500.02235174447, 0.026000000000000002, 0.158, 0.96, 192.0, 0.0, 0.0, 0.0, 0.0, 0.0, 0.0, 0.0, 0.0, 0.0, 1.7173973516199553E9, 0.0, 2024-06-02 23:49:11.619
81.0, -187500.02235174447, -16343.349676531516, -187500.02235174447, -187500.02235174447, -187500.02235174447, -187500.02235174447, -54018.77957806344, -187500.02235174447, 0.026000000000000002, 0.158, 0.96, 192.0, 0.0, 0.0, 0.0, 0.0, 0.0, 0.0, 0.0, 0.0, 0.0, 1.7173973516199644E9, 0.0, 2024-06-02 23:49:11.619
82.0, -187500.02235174447, -16337.940554373332, -187500.02235174447, -187500.02235174447, -187500.02235174447, -187500.02235174447, -54016.432644895634, -187500.02235174447, 0.026000000000000002, 0.158, 0.96, 192.0, 0.0, 0.0, 0.0, 0.0, 0.0, 0.0, 0.0, 0.0, 0.0, 1.7173973516199737E9, 0.0, 2024-06-02 23:49:11.619
83.0, -187500.02235174447, -16322.920182099366, -187500.02235174447, -187500.02235174447, -187500.02235174447, -187500.02235174447, -54023.4510926546, -187500.02235174447, 0.026000000000000002, 0.158, 0.96, 192.0, 0.0, 0.0, 0.0, 0.0, 0.0, 0.0, 0.0, 0.0, 0.0, 1.7173973516199827E9, 0.0, 2024-06-02 23:49:11.619
84.0, -187500.02235174447, -16304.189420245817, -187500.02235174447, -187500.02235174447, -187500.02235174447, -187500.02235174447, -54013.12458671625, -187500.02235174447, 0.026000000000000002, 0.158, 0.96, 192.0, 0.0, 0.0, 0.0, 0.0, 0.0, 0.0, 0.0, 0.0, 0.0, 1.717397351619992E9, 0.0, 2024-06-02 23:49:11.619
85.0, -187500.02235174447, -16308.637417392423, -187500.02235174447, -187500.02235174447, -187500.02235174447, -187500.02235174447, -53987.37537710374, -187500.02235174447, 0.026000000000000002, 0.158, 0.96, 192.0, 0.0, 0.0, 0.0, 0.0, 0.0, 0.0, 0.0, 0.0, 0.0, 1.717397351620001E9, 0.0, 2024-06-02 23:49:11.620
86.0, -187500.02235174447, -16322.920182099366, -187500.02235174447, -187500.02235174447, -187500.02235174447, -187500.02235174447, -53992.22570565053, -187500.02235174447, 0.026000000000000002, 0.158, 0.96, 192.0, 0.0, 0.0, 0.0, 0.0, 0.0, 0.0, 0.0, 0.0, 0.0, 1.7173973516200104E9, 0.0, 2024-06-02 23:49:11.620
87.0, -187500.02235174447, -16333.626667693457, -187500.02235174447, -187500.02235174447, -187500.02235174447, -187500.02235174447, -54032.168272992174, -187500.02235174447, 0.026000000000000002, 0.158, 0.96, 192.0, 0.0, 0.0, 0.0, 0.0, 0.0, 0.0, 0.0, 0.0, 0.0, 1.7173973516200244E9, 0.0, 2024-06-02 23:49:11.620
88.0, -187500.02235174447, -16339.32636252956, -187500.02235174447, -187500.02235174447, -187500.02235174447, -187500.02235174447, -54046.24987199901, -187500.02235174447, 0.028, 0.156, 0.964, 192.0, 0.0, 224.0, 4.0, 224.0, 30.0, 32.0, 0.0, 0.0, 0.0, 1.7173973516200335E9, 0.0, 2024-06-02 23:49:11.620
89.0, -187500.02235174447, -16337.873499139965, -187500.02235174447, -187500.02235174447, -187500.02235174447, -187500.02235174447, -54027.18383397863, -187500.02235174447, 0.028, 0.156, 0.964, 192.0, 0.0, 0.0, 0.0, 0.0, 0.0, 0.0, 0.0, 0.0, 0.0, 1.7173973516200433E9, 0.0, 2024-06-02 23:49:11.620
90.0, -187500.02235174447, -16327.32347575706, -187500.02235174447, -187500.02235174447, -187500.02235174447, -187500.02235174447, -54021.97587752055, -187500.02235174447, 0.028, 0.156, 0.964, 192.0, 0.0, 0.0, 0.0, 0.0, 0.0, 0.0, 0.0, 0.0, 0.0, 1.7173973516200523E9, 0.0, 2024-06-02 23:49:11.620
91.0, -187500.02235174447, -16324.998894333708, -187500.02235174447, -187500.02235174447, -187500.02235174447, -187500.02235174447, -54030.24602296901, -187500.02235174447, 0.028, 0.156, 0.964, 192.0, 0.0, 0.0, 0.0, 0.0, 0.0, 0.0, 0.0, 0.0, 0.0, 1.7173973516200616E9, 0.0, 2024-06-02 23:49:11.620
92.0, -187500.02235174447, -16326.339999001028, -187500.02235174447, -187500.02235174447, -187500.02235174447, -187500.02235174447, -54040.23725274054, -187500.02235174447, 0.028, 0.156, 0.964, 192.0, 0.0, 0.0, 0.0, 0.0, 0.0, 0.0, 0.0, 0.0, 0.0, 1.7173973516200707E9, 0.0, 2024-06-02 23:49:11.620
93.0, -187500.02235174447, -16319.388606475426, -187500.02235174447, -187500.02235174447, -187500.02235174447, -187500.02235174447, -54035.56573814938, -187500.02235174447, 0.028, 0.156, 0.964, 192.0, 0.0, 0.0, 0.0, 0.0, 0.0, 0.0, 0.0, 0.0, 0.0, 1.7173973516200805E9, 0.0, 2024-06-02 23:49:11.620
94.0, -187500.02235174447, -16322.003760576697, -187500.02235174447, -187500.02235174447, -187500.02235174447, -187500.02235174447, -54030.4024851802, -187500.02235174447, 0.028, 0.156, 0.964, 192.0, 0.0, 0.0, 0.0, 0.0, 0.0, 0.0, 0.0, 0.0, 0.0, 1.7173973516200895E9, 0.0, 2024-06-02 23:49:11.620
95.0, -187500.02235174447, -16328.597525191013, -187500.02235174447, -187500.02235174447, -187500.02235174447, -187500.02235174447, -54040.12549401826, -187500.02235174447, 0.028, 0.156, 0.964, 192.0, 0.0, 0.0, 0.0, 0.0, 0.0, 0.0, 0.0, 0.0, 0.0, 1.7173973516200988E9, 0.0, 2024-06-02 23:49:11.620
96.0, -187500.02235174447, -16338.812272407089, -187500.02235174447, -187500.02235174447, -187500.02235174447, -187500.02235174447, -54049.62498541176, -187500.02235174447, 0.028, 0.156, 0.964, 192.0, 0.0, 0.0, 0.0, 0.0, 0.0, 0.0, 0.0, 0.0, 0.0, 1.717397351620108E9, 0.0, 2024-06-02 23:49:11.620
97.0, -187500.02235174447, -16339.393417762927, -187500.02235174447, -187500.02235174447, -187500.02235174447, -187500.02235174447, -54051.63664241274, -187500.02235174447, 0.028, 0.156, 0.964, 192.0, 0.0, 0.0, 0.0, 0.0, 0.0, 0.0, 0.0, 0.0, 0.0, 1.7173973516201172E9, 0.0, 2024-06-02 23:49:11.620
98.0, -187500.02235174447, -16328.41871123537, -187500.02235174447, -187500.02235174447, -187500.02235174447, -187500.02235174447, -54037.39858119471, -187500.02235174447, 0.022, 0.154, 0.966, 192.0, 0.0, 176.0, 4.0, 208.0, 30.0, 48.0, 0.0, 0.0, 0.0, 1.7173973516201262E9, 0.0, 2024-06-02 23:49:11.620
99.0, -187500.02235174447, -16321.780243132145, -187500.02235174447, -187500.02235174447, -187500.02235174447, -187500.02235174447, -54044.03704929794, -187500.02235174447, 0.022, 0.154, 0.966, 192.0, 0.0, 0.0, 0.0, 0.0, 0.0, 0.0, 0.0, 0.0, 0.0, 1.717397351620136E9, 0.0, 2024-06-02 23:49:11.620
100.0, -187500.02235174447, -16315.052368051098, -187500.02235174447, -187500.02235174447, -187500.02235174447, -187500.02235174447, -54039.70081087361, -187500.02235174447, 0.022, 0.154, 0.966, 192.0, 0.0, 0.0, 0.0, 0.0, 0.0, 0.0, 0.0, 0.0, 0.0, 1.7173973516201456E9, 0.0, 2024-06-02 23:49:11.620
101.0, -187500.02235174447, -16317.578115174547, -187500.02235174447, -187500.02235174447, -187500.02235174447, -187500.02235174447, -54027.56381363438, -187500.02235174447, 0.022, 0.154, 0.966, 192.0, 0.0, 0.0, 0.0, 0.0, 0.0, 0.0, 0.0, 0.0, 0.0, 1.7173973516201549E9, 0.0, 2024-06-02 23:49:11.620
102.0, -187500.02235174447, -16304.167068501363, -187500.02235174447, -187500.02235174447, -187500.02235174447, -187500.02235174447, -54019.56188911938, -187500.02235174447, 0.022, 0.154, 0.966, 192.0, 0.0, 0.0, 0.0, 0.0, 0.0, 0.0, 0.0, 0.0, 0.0, 1.7173973516201692E9, 0.0, 2024-06-02 23:49:11.620
103.0, -187500.02235174447, -16299.160277743375, -187500.02235174447, -187500.02235174447, -187500.02235174447, -187500.02235174447, -54025.7533223335, -187500.02235174447, 0.022, 0.154, 0.966, 192.0, 0.0, 0.0, 0.0, 0.0, 0.0, 0.0, 0.0, 0.0, 0.0, 1.7173973516201787E9, 0.0, 2024-06-02 23:49:11.620
104.0, -187500.02235174447, -16305.75404235769, -187500.02235174447, -187500.02235174447, -187500.02235174447, -187500.02235174447, -54045.869892343275, -187500.02235174447, 0.022, 0.154, 0.966, 192.0, 0.0, 0.0, 0.0, 0.0, 0.0, 0.0, 0.0, 0.0, 0.0, 1.717397352099393E9, 0.0, 2024-06-02 23:49:12.099
105.0, -187500.02235174447, -16307.22925749174, -187500.02235174447, -187500.02235174447, -187500.02235174447, -187500.02235174447, -54046.138113276735, -187500.02235174447, 0.022, 0.154, 0.966, 192.0, 0.0, 0.0, 0.0, 0.0, 0.0, 0.0, 0.0, 0.0, 0.0, 1.7173973520994294E9, 0.0, 2024-06-02 23:49:12.099
106.0, -187500.02235174447, -16301.663673122368, -187500.02235174447, -187500.02235174447, -187500.02235174447, -187500.02235174447, -54022.534671131936, -187500.02235174447, 0.022, 0.154, 0.966, 192.0, 0.0, 0.0, 0.0, 0.0, 0.0, 0.0, 0.0, 0.0, 0.0, 1.7173973520994453E9, 0.0, 2024-06-02 23:49:12.099
107.0, -187500.02235174447, -16299.98729228822, -187500.02235174447, -187500.02235174447, -187500.02235174447, -187500.02235174447, -54016.76792106246, -187500.02235174447, 0.022, 0.154, 0.966, 192.0, 0.0, 0.0, 0.0, 0.0, 0.0, 0.0, 0.0, 0.0, 0.0, 1.7173973520994613E9, 0.0, 2024-06-02 23:49:12.099
108.0, -187500.02235174447, -16308.592713903514, -187500.02235174447, -187500.02235174447, -187500.02235174447, -187500.02235174447, -54049.51322668949, -187500.02235174447, 0.022, 0.154, 0.974, 192.0, 0.0, 176.0, 4.0, 208.0, 30.0, 112.0, 0.0, 0.0, 0.0, 1.7173973520994773E9, 0.0, 2024-06-02 23:49:12.099
109.0, -187500.02235174447, -16319.165089030874, -187500.02235174447, -187500.02235174447, -187500.02235174447, -187500.02235174447, -54067.528732720464, -187500.02235174447, 0.022, 0.154, 0.974, 192.0, 0.0, 0.0, 0.0, 0.0, 0.0, 0.0, 0.0, 0.0, 0.0, 1.7173973520994885E9, 0.0, 2024-06-02 23:49:12.099
110.0, -187500.02235174447, -16322.853126865999, -187500.02235174447, -187500.02235174447, -187500.02235174447, -187500.02235174447, -54050.18377902315, -187500.02235174447, 0.022, 0.154, 0.974, 192.0, 0.0, 0.0, 0.0, 0.0, 0.0, 0.0, 0.0, 0.0, 0.0, 1.717397352099498E9, 0.0, 2024-06-02 23:49:12.099
111.0, -187500.02235174447, -16316.237010507228, -187500.02235174447, -187500.02235174447, -187500.02235174447, -187500.02235174447, -54031.810645080885, -187500.02235174447, 0.022, 0.154, 0.974, 192.0, 0.0, 0.0, 0.0, 0.0, 0.0, 0.0, 0.0, 0.0, 0.0, 1.7173973520995076E9, 0.0, 2024-06-02 23:49:12.099
112.0, -187500.02235174447, -16318.092205297018, -187500.02235174447, -187500.02235174447, -187500.02235174447, -187500.02235174447, -54058.05159307142, -187500.02235174447, 0.022, 0.154, 0.974, 192.0, 0.0, 0.0, 0.0, 0.0, 0.0, 0.0, 0.0, 0.0, 0.0, 1.717397352099517E9, 0.0, 2024-06-02 23:49:12.099
113.0, -187500.02235174447, -16306.648112135901, -187500.02235174447, -187500.02235174447, -187500.02235174447, -187500.02235174447, -54064.13126756326, -187500.02235174447, 0.022, 0.154, 0.974, 192.0, 0.0, 0.0, 0.0, 0.0, 0.0, 0.0, 0.0, 0.0, 0.0, 1.7173973520995276E9, 0.0, 2024-06-02 23:49:12.099
114.0, -187500.02235174447, -16294.8463910635, -187500.02235174447, -187500.02235174447, -187500.02235174447, -187500.02235174447, -54045.579319665354, -187500.02235174447, 0.022, 0.154, 0.974, 192.0, 0.0, 0.0, 0.0, 0.0, 0.0, 0.0, 0.0, 0.0, 0.0, 1.717397352099537E9, 0.0, 2024-06-02 23:49:12.099
115.0, -187500.02235174447, -16288.409088660372, -187500.02235174447, -187500.02235174447, -187500.02235174447, -187500.02235174447, -54021.08180774234, -187500.02235174447, 0.022, 0.154, 0.974, 192.0, 0.0, 0.0, 0.0, 0.0, 0.0, 0.0, 0.0, 0.0, 0.0, 1.7173973520995467E9, 0.0, 2024-06-02 23:49:12.099
116.0, -187500.02235174447, -16307.296312725106, -187500.02235174447, -187500.02235174447, -187500.02235174447, -187500.02235174447, -54044.48408418705, -187500.02235174447, 0.022, 0.154, 0.974, 192.0, 0.0, 0.0, 0.0, 0.0, 0.0, 0.0, 0.0, 0.0, 0.0, 1.7173973520995562E9, 0.0, 2024-06-02 23:49:12.099
117.0, -187500.02235174447, -16322.920182099366, -187500.02235174447, -187500.02235174447, -187500.02235174447, -187500.02235174447, -54091.243933587546, -187500.02235174447, 0.026000000000000002, 0.152, 0.972, 192.0, 0.0, 208.0, 4.0, 192.0, 30.0, 96.0, 0.0, 0.0, 0.0, 1.7173973520995865E9, 0.0, 2024-06-02 23:49:12.099
118.0, -187500.02235174447, -16316.482879696237, -187500.02235174447, -187500.02235174447, -187500.02235174447, -187500.02235174447, -54073.42959325667, -187500.02235174447, 0.026000000000000002, 0.152, 0.972, 192.0, 0.0, 0.0, 0.0, 0.0, 0.0, 0.0, 0.0, 0.0, 0.0, 1.7173973520995967E9, 0.0, 2024-06-02 23:49:12.099
119.0, -187500.02235174447, -16298.310911454073, -187500.02235174447, -187500.02235174447, -187500.02235174447, -187500.02235174447, -54053.71535464709, -187500.02235174447, 0.026000000000000002, 0.152, 0.972, 192.0, 0.0, 0.0, 0.0, 0.0, 0.0, 0.0, 0.0, 0.0, 0.0, 1.7173973520996065E9, 0.0, 2024-06-02 23:49:12.099
120.0, -187500.02235174447, -16298.087394009519, -187500.02235174447, -187500.02235174447, -187500.02235174447, -187500.02235174447, -54054.89999710322, -187500.02235174447, 0.026000000000000002, 0.152, 0.972, 192.0, 0.0, 0.0, 0.0, 0.0, 0.0, 0.0, 0.0, 0.0, 0.0, 1.7173973520996168E9, 0.0, 2024-06-02 23:49:12.099
121.0, -187500.02235174447, -16295.852219563989, -187500.02235174447, -187500.02235174447, -187500.02235174447, -187500.02235174447, -54083.130250350274, -187500.02235174447, 0.026000000000000002, 0.152, 0.972, 192.0, 0.0, 0.0, 0.0, 0.0, 0.0, 0.0, 0.0, 0.0, 0.0, 1.7173973520996273E9, 0.0, 2024-06-02 23:49:12.099
122.0, -187500.02235174447, -16292.007719517676, -187500.02235174447, -187500.02235174447, -187500.02235174447, -187500.02235174447, -54072.35670952281, -187500.02235174447, 0.026000000000000002, 0.152, 0.972, 192.0, 0.0, 0.0, 0.0, 0.0, 0.0, 0.0, 0.0, 0.0, 0.0, 1.7173973520996368E9, 0.0, 2024-06-02 23:49:12.099
123.0, -187500.02235174447, -16278.127286210929, -187500.02235174447, -187500.02235174447, -187500.02235174447, -187500.02235174447, -54040.86310158529, -187500.02235174447, 0.026000000000000002, 0.152, 0.972, 192.0, 0.0, 0.0, 0.0, 0.0, 0.0, 0.0, 0.0, 0.0, 0.0, 1.7173973520996463E9, 0.0, 2024-06-02 23:49:12.099
124.0, -187500.02235174447, -16276.40620188787, -187500.02235174447, -187500.02235174447, -187500.02235174447, -187500.02235174447, -54064.77946815246, -187500.02235174447, 0.026000000000000002, 0.152, 0.972, 192.0, 0.0, 0.0, 0.0, 0.0, 0.0, 0.0, 0.0, 0.0, 0.0, 1.717397352099656E9, 0.0, 2024-06-02 23:49:12.099
125.0, -187500.02235174447, -16273.723992553234, -187500.02235174447, -187500.02235174447, -187500.02235174447, -187500.02235174447, -54074.77069792399, -187500.02235174447, 0.026000000000000002, 0.152, 0.972, 192.0, 0.0, 0.0, 0.0, 0.0, 0.0, 0.0, 0.0, 0.0, 0.0, 1.7173973520996654E9, 0.0, 2024-06-02 23:49:12.099
126.0, -187500.02235174447, -16281.36828915695, -187500.02235174447, -187500.02235174447, -187500.02235174447, -187500.02235174447, -54067.193456553636, -187500.02235174447, 0.026000000000000002, 0.152, 0.972, 192.0, 0.0, 0.0, 0.0, 0.0, 0.0, 0.0, 0.0, 0.0, 0.0, 1.7173973520996752E9, 0.0, 2024-06-02 23:49:12.099
127.0, -187500.02235174447, -16283.715222324756, -187500.02235174447, -187500.02235174447, -187500.02235174447, -187500.02235174447, -54072.714337434096, -187500.02235174447, 0.026000000000000002, 0.154, 0.962, 192.0, 0.0, 208.0, 4.0, 208.0, 30.0, 16.0, 0.0, 0.0, 0.0, 1.7173973520996847E9, 0.0, 2024-06-02 23:49:12.099
128.0, -187500.02235174447, -16272.606405330469, -187500.02235174447, -187500.02235174447, -187500.02235174447, -187500.02235174447, -54074.100145590324, -187500.02235174447, 0.026000000000000002, 0.154, 0.962, 192.0, 0.0, 0.0, 0.0, 0.0, 0.0, 0.0, 0.0, 0.0, 0.0, 1.7173973520996952E9, 0.0, 2024-06-02 23:49:12.099
129.0, -187500.02235174447, -16280.429515889826, -187500.02235174447, -187500.02235174447, -187500.02235174447, -187500.02235174447, -54082.772622438984, -187500.02235174447, 0.026000000000000002, 0.154, 0.962, 192.0, 0.0, 0.0, 0.0, 0.0, 0.0, 0.0, 0.0, 0.0, 0.0, 1.7173973520997045E9, 0.0, 2024-06-02 23:49:12.099
130.0, -187500.02235174447, -16277.300271666083, -187500.02235174447, -187500.02235174447, -187500.02235174447, -187500.02235174447, -54076.22356131358, -187500.02235174447, 0.026000000000000002, 0.154, 0.962, 192.0, 0.0, 0.0, 0.0, 0.0, 0.0, 0.0, 0.0, 0.0, 0.0, 1.717397352099714E9, 0.0, 2024-06-02 23:49:12.099
131.0, -187500.02235174447, -16269.275995406628, -187500.02235174447, -187500.02235174447, -187500.02235174447, -187500.02235174447, -54064.33243326336, -187500.02235174447, 0.026000000000000002, 0.154, 0.962, 192.0, 0.0, 0.0, 0.0, 0.0, 0.0, 0.0, 0.0, 0.0, 0.0, 1.7173973520997233E9, 0.0, 2024-06-02 23:49:12.099
132.0, -187500.02235174447, -16262.369306369937, -187500.02235174447, -187500.02235174447, -187500.02235174447, -187500.02235174447, -54063.617177440785, -187500.02235174447, 0.026000000000000002, 0.154, 0.962, 192.0, 0.0, 0.0, 0.0, 0.0, 0.0, 0.0, 0.0, 0.0, 0.0, 1.717397352099738E9, 0.0, 2024-06-02 23:49:12.099
133.0, -187500.02235174447, -16258.793027257088, -187500.02235174447, -187500.02235174447, -187500.02235174447, -187500.02235174447, -54079.73278519306, -187500.02235174447, 0.026000000000000002, 0.154, 0.962, 192.0, 0.0, 0.0, 0.0, 0.0, 0.0, 0.0, 0.0, 0.0, 0.0, 1.717397352099748E9, 0.0, 2024-06-02 23:49:12.099
134.0, -187500.02235174447, -16274.103972208975, -187500.02235174447, -187500.02235174447, -187500.02235174447, -187500.02235174447, -54084.49370676204, -187500.02235174447, 0.026000000000000002, 0.154, 0.962, 192.0, 0.0, 0.0, 0.0, 0.0, 0.0, 0.0, 0.0, 0.0, 0.0, 1.7173973520997577E9, 0.0, 2024-06-02 23:49:12.099
135.0, -187500.02235174447, -16275.802704787578, -187500.02235174447, -187500.02235174447, -187500.02235174447, -187500.02235174447, -54065.651186186224, -187500.02235174447, 0.026000000000000002, 0.154, 0.962, 192.0, 0.0, 0.0, 0.0, 0.0, 0.0, 0.0, 0.0, 0.0, 0.0, 1.7173973520997667E9, 0.0, 2024-06-02 23:49:12.099
