%OpenBCI Raw EXG Data
%Number of channels = 8
%Sample Rate = 250 Hz
%Board = OpenBCI_GUI$BoardCytonSerial
Sample Index, EXG Channel 0, EXG Channel 1, EXG Channel 2, EXG Channel 3, EXG Channel 4, EXG Channel 5, EXG Channel 6, EXG Channel 7, Accel Channel 0, Accel Channel 1, Accel Channel 2, Other, Other, Other, Other, Other, Other, Other, Analog Channel 0, Analog Channel 1, Analog Channel 2, Timestamp, Other, Timestamp (Formatted)
0.0, 0.0, 0.0, 0.0, 0.0, 0.0, 0.0, 0.0, 0.0, 0.0, 0.0, 0.0, 192.0, 0.0, 0.0, 0.0, 0.0, 0.0, 0.0, 0.0, 0.0, 0.0, 1.7172380191967103E9, 0.0, 2024-06-01 03:33:39.196
1.0, 187500.0, -33741.18760123105, 187500.0, 187500.0, 187500.0, 187500.0, 187500.0, -91685.15702309097, 0.016, -0.01, 0.98, 192.0, 0.0, 128.0, 255.0, 176.0, 30.0, 160.0, 0.0, 0.0, 0.0, 1.7172380196797469E9, 0.0, 2024-06-01 03:33:39.679
2.0, 187500.0, -33730.794040059336, 187500.0, 187500.0, 187500.0, 187500.0, 187500.0, -91690.25322082678, 0.016, -0.01, 0.98, 192.0, 0.0, 0.0, 0.0, 0.0, 0.0, 0.0, 0.0, 0.0, 0.0, 1.7172380196797965E9, 0.0, 2024-06-01 03:33:39.679
3.0, 187500.0, -33718.58998758674, 187500.0, 187500.0, 187500.0, 187500.0, 187500.0, -91682.36305503406, 0.016, -0.01, 0.98, 192.0, 0.0, 0.0, 0.0, 0.0, 0.0, 0.0, 0.0, 0.0, 0.0, 1.7172380196798277E9, 0.0, 2024-06-01 03:33:39.679
4.0, 187500.0, -33728.35769991371, 187500.0, 187500.0, 187500.0, 187500.0, 187500.0, -91679.52438348823, 0.016, -0.01, 0.98, 192.0, 0.0, 0.0, 0.0, 0.0, 0.0, 0.0, 0.0, 0.0, 0.0, 1.7172380196798592E9, 0.0, 2024-06-01 03:33:39.679
5.0, 187500.0, -33731.37518541517, 187500.0, 187500.0, 187500.0, 187500.0, 187500.0, -91680.21728756634, 0.016, -0.01, 0.98, 192.0, 0.0, 0.0, 0.0, 0.0, 0.0, 0.0, 0.0, 0.0, 0.0, 1.717238019679891E9, 0.0, 2024-06-01 03:33:39.679
6.0, 187500.0, -33723.73088881146, 187500.0, 187500.0, 187500.0, 187500.0, 187500.0, -91685.42524402443, 0.016, -0.01, 0.98, 192.0, 0.0, 0.0, 0.0, 0.0, 0.0, 0.0, 0.0, 0.0, 0.0, 1.7172380196799183E9, 0.0, 2024-06-01 03:33:39.679
7.0, 187500.0, -33710.923339238565, 187500.0, 187500.0, 187500.0, 187500.0, 187500.0, -91681.11135734456, 0.016, -0.01, 0.98, 192.0, 0.0, 0.0, 0.0, 0.0, 0.0, 0.0, 0.0, 0.0, 0.0, 1.7172380196799464E9, 0.0, 2024-06-01 03:33:39.679
8.0, 187500.0, -33718.88056026465, 187500.0, 187500.0, 187500.0, 187500.0, 187500.0, -91671.67892118442, 0.014, -0.016, 0.982, 192.0, 0.0, 112.0, 255.0, 128.0, 30.0, 176.0, 0.0, 0.0, 0.0, 1.7172380196799643E9, 0.0, 2024-06-01 03:33:39.679
9.0, 187500.0, -33733.27508369387, 187500.0, 187500.0, 187500.0, 187500.0, 187500.0, -91676.8421741536, 0.014, -0.016, 0.982, 192.0, 0.0, 0.0, 0.0, 0.0, 0.0, 0.0, 0.0, 0.0, 0.0, 1.7172380196799817E9, 0.0, 2024-06-01 03:33:39.679
10.0, 187500.0, -33720.936920754546, 187500.0, 187500.0, 187500.0, 187500.0, 187500.0, -91679.12205208803, 0.014, -0.016, 0.982, 192.0, 0.0, 0.0, 0.0, 0.0, 0.0, 0.0, 0.0, 0.0, 0.0, 1.7172380196799982E9, 0.0, 2024-06-01 03:33:39.679
11.0, 187500.0, -33713.89612125112, 187500.0, 187500.0, 187500.0, 187500.0, 187500.0, -91678.63031371002, 0.014, -0.016, 0.982, 192.0, 0.0, 0.0, 0.0, 0.0, 0.0, 0.0, 0.0, 0.0, 0.0, 1.7172380196800148E9, 0.0, 2024-06-01 03:33:39.680
12.0, 187500.0, -33720.89221726563, 187500.0, 187500.0, 187500.0, 187500.0, 187500.0, -91682.13953758951, 0.014, -0.016, 0.982, 192.0, 0.0, 0.0, 0.0, 0.0, 0.0, 0.0, 0.0, 0.0, 0.0, 1.7172380196800313E9, 0.0, 2024-06-01 03:33:39.680
13.0, 187500.0, -33731.33048192626, 187500.0, 187500.0, 187500.0, 187500.0, 187500.0, -91678.92088638793, 0.014, -0.016, 0.982, 192.0, 0.0, 0.0, 0.0, 0.0, 0.0, 0.0, 0.0, 0.0, 0.0, 1.7172380196800478E9, 0.0, 2024-06-01 03:33:39.680
14.0, 187500.0, -33727.44127839104, 187500.0, 187500.0, 187500.0, 187500.0, 187500.0, -91689.60502023758, 0.014, -0.016, 0.982, 192.0, 0.0, 0.0, 0.0, 0.0, 0.0, 0.0, 0.0, 0.0, 0.0, 1.7172380196800644E9, 0.0, 2024-06-01 03:33:39.680
15.0, 187500.0, -33710.25278690491, 187500.0, 187500.0, 187500.0, 187500.0, 187500.0, -91684.59822947958, 0.014, -0.016, 0.982, 192.0, 0.0, 0.0, 0.0, 0.0, 0.0, 0.0, 0.0, 0.0, 0.0, 1.717238019680081E9, 0.0, 2024-06-01 03:33:39.680
16.0, 187500.0, -33699.9039292221, 187500.0, 187500.0, 187500.0, 187500.0, 187500.0, -91666.5380199597, 0.014, -0.016, 0.982, 192.0, 0.0, 0.0, 0.0, 0.0, 0.0, 0.0, 0.0, 0.0, 0.0, 1.7172380196802454E9, 0.0, 2024-06-01 03:33:39.680
17.0, 187500.0, -33704.41898160207, 187500.0, 187500.0, 187500.0, 187500.0, 187500.0, -91657.17263903293, 0.014, -0.016, 0.982, 192.0, 0.0, 0.0, 0.0, 0.0, 0.0, 0.0, 0.0, 0.0, 0.0, 1.7172380196802633E9, 0.0, 2024-06-01 03:33:39.680
18.0, 187500.0, -33712.66677530608, 187500.0, 187500.0, 187500.0, 187500.0, 187500.0, -91671.8353833956, 0.012, -0.018000000000000002, 0.984, 192.0, 0.0, 96.0, 255.0, 112.0, 30.0, 192.0, 0.0, 0.0, 0.0, 1.71723801968028E9, 0.0, 2024-06-01 03:33:39.680
19.0, 187500.0, -33710.38689737164, 187500.0, 187500.0, 187500.0, 187500.0, 187500.0, -91682.87714515653, 0.012, -0.018000000000000002, 0.984, 192.0, 0.0, 0.0, 0.0, 0.0, 0.0, 0.0, 0.0, 0.0, 0.0, 1.7172380196802971E9, 0.0, 2024-06-01 03:33:39.680
20.0, 187500.0, -33706.27417639186, 187500.0, 187500.0, 187500.0, 187500.0, 187500.0, -91677.78094742072, 0.012, -0.018000000000000002, 0.984, 192.0, 0.0, 0.0, 0.0, 0.0, 0.0, 0.0, 0.0, 0.0, 0.0, 1.7172380196803138E9, 0.0, 2024-06-01 03:33:39.680
21.0, 187500.0, -33714.43256311805, 187500.0, 187500.0, 187500.0, 187500.0, 187500.0, -91672.26006654026, 0.012, -0.018000000000000002, 0.984, 192.0, 0.0, 0.0, 0.0, 0.0, 0.0, 0.0, 0.0, 0.0, 0.0, 1.7172380196803303E9, 0.0, 2024-06-01 03:33:39.680
22.0, 187500.0, -33721.54041785484, 187500.0, 187500.0, 187500.0, 187500.0, 187500.0, -91675.72458693082, 0.012, -0.018000000000000002, 0.984, 192.0, 0.0, 0.0, 0.0, 0.0, 0.0, 0.0, 0.0, 0.0, 0.0, 1.7172380196803465E9, 0.0, 2024-06-01 03:33:39.680
23.0, 187500.0, -33717.69591780852, 187500.0, 187500.0, 187500.0, 187500.0, 187500.0, -91679.30086604368, 0.012, -0.018000000000000002, 0.984, 192.0, 0.0, 0.0, 0.0, 0.0, 0.0, 0.0, 0.0, 0.0, 0.0, 1.7172380196803672E9, 0.0, 2024-06-01 03:33:39.680
24.0, 187500.0, -33706.184769414045, 187500.0, 187500.0, 187500.0, 187500.0, 187500.0, -91663.69934841387, 0.012, -0.018000000000000002, 0.984, 192.0, 0.0, 0.0, 0.0, 0.0, 0.0, 0.0, 0.0, 0.0, 0.0, 1.7172380196803837E9, 0.0, 2024-06-01 03:33:39.680
25.0, 187500.0, -33706.96708046998, 187500.0, 187500.0, 187500.0, 187500.0, 187500.0, -91648.61192090654, 0.012, -0.018000000000000002, 0.984, 192.0, 0.0, 0.0, 0.0, 0.0, 0.0, 0.0, 0.0, 0.0, 0.0, 1.7172380196804E9, 0.0, 2024-06-01 03:33:39.680
26.0, 187500.0, -33707.34706012572, 187500.0, 187500.0, 187500.0, 187500.0, 187500.0, -91656.39032797699, 0.012, -0.018000000000000002, 0.984, 192.0, 0.0, 0.0, 0.0, 0.0, 0.0, 0.0, 0.0, 0.0, 0.0, 1.7172380196804166E9, 0.0, 2024-06-01 03:33:39.680
27.0, 187500.0, -33694.852434975204, 187500.0, 187500.0, 187500.0, 187500.0, 187500.0, -91666.76153740425, 0.012, -0.018000000000000002, 0.984, 192.0, 0.0, 0.0, 0.0, 0.0, 0.0, 0.0, 0.0, 0.0, 0.0, 1.7172380196804328E9, 0.0, 2024-06-01 03:33:39.680
28.0, 187500.0, -33691.58908028473, 187500.0, 187500.0, 187500.0, 187500.0, 187500.0, -91661.3300635016, 0.014, -0.018000000000000002, 0.978, 192.0, 0.0, 112.0, 255.0, 112.0, 30.0, 144.0, 0.0, 0.0, 0.0, 1.7172380196804495E9, 0.0, 2024-06-01 03:33:39.680
29.0, 187500.0, -33707.2576531479, 187500.0, 187500.0, 187500.0, 187500.0, 187500.0, -91661.57593269061, 0.014, -0.018000000000000002, 0.978, 192.0, 0.0, 0.0, 0.0, 0.0, 0.0, 0.0, 0.0, 0.0, 0.0, 1.7172380196804664E9, 0.0, 2024-06-01 03:33:39.680
30.0, 187500.0, -33713.516141595384, 187500.0, 187500.0, 187500.0, 187500.0, 187500.0, -91669.64491243899, 0.014, -0.018000000000000002, 0.978, 192.0, 0.0, 0.0, 0.0, 0.0, 0.0, 0.0, 0.0, 0.0, 0.0, 1.7172380196804829E9, 0.0, 2024-06-01 03:33:39.680
31.0, 187500.0, -33699.56865305527, 187500.0, 187500.0, 187500.0, 187500.0, 187500.0, -91681.40193002248, 0.014, -0.018000000000000002, 0.978, 192.0, 0.0, 0.0, 0.0, 0.0, 0.0, 0.0, 0.0, 0.0, 0.0, 1.7172380196805348E9, 0.0, 2024-06-01 03:33:39.680
32.0, 187500.0, -33687.364600582674, 187500.0, 187500.0, 187500.0, 187500.0, 187500.0, -91675.94810437538, 0.014, -0.018000000000000002, 0.978, 192.0, 0.0, 0.0, 0.0, 0.0, 0.0, 0.0, 0.0, 0.0, 0.0, 1.7172380196805515E9, 0.0, 2024-06-01 03:33:39.680
33.0, 187500.0, -33692.97488844096, 187500.0, 187500.0, 187500.0, 187500.0, 187500.0, -91663.47583096931, 0.014, -0.018000000000000002, 0.978, 192.0, 0.0, 0.0, 0.0, 0.0, 0.0, 0.0, 0.0, 0.0, 0.0, 1.717238019680568E9, 0.0, 2024-06-01 03:33:39.680
34.0, 187500.0, -33703.14493216812, 187500.0, 187500.0, 187500.0, 187500.0, 187500.0, -91650.9812058188, 0.014, -0.018000000000000002, 0.978, 192.0, 0.0, 0.0, 0.0, 0.0, 0.0, 0.0, 0.0, 0.0, 0.0, 1.7172380196805844E9, 0.0, 2024-06-01 03:33:39.680
35.0, 187500.0, -33696.595871042715, 187500.0, 187500.0, 187500.0, 187500.0, 187500.0, -91655.25038900977, 0.014, -0.018000000000000002, 0.978, 192.0, 0.0, 0.0, 0.0, 0.0, 0.0, 0.0, 0.0, 0.0, 0.0, 1.7172380196806006E9, 0.0, 2024-06-01 03:33:39.680
36.0, 187500.0, -33679.94382142351, 187500.0, 187500.0, 187500.0, 187500.0, 187500.0, -91655.31744424313, 0.014, -0.018000000000000002, 0.978, 192.0, 0.0, 0.0, 0.0, 0.0, 0.0, 0.0, 0.0, 0.0, 0.0, 1.717238019680617E9, 0.0, 2024-06-01 03:33:39.680
37.0, 187500.0, -33680.63672550162, 187500.0, 187500.0, 187500.0, 187500.0, 187500.0, -91652.0317378082, 0.014, -0.018000000000000002, 0.978, 192.0, 0.0, 0.0, 0.0, 0.0, 0.0, 0.0, 0.0, 0.0, 0.0, 1.7172380196806335E9, 0.0, 2024-06-01 03:33:39.680
38.0, 187500.0, -33690.13621689513, 187500.0, 187500.0, 187500.0, 187500.0, 187500.0, -91651.8305721081, 0.022, -0.018000000000000002, 0.976, 192.0, 0.0, 176.0, 255.0, 112.0, 30.0, 128.0, 0.0, 0.0, 0.0, 1.71723801968065E9, 0.0, 2024-06-01 03:33:39.680
39.0, 187500.0, -33687.163434882576, 187500.0, 187500.0, 187500.0, 187500.0, 187500.0, -91659.72073790083, 0.022, -0.018000000000000002, 0.976, 192.0, 0.0, 0.0, 0.0, 0.0, 0.0, 0.0, 0.0, 0.0, 0.0, 1.7172380196806674E9, 0.0, 2024-06-01 03:33:39.680
40.0, 187500.0, -33674.445292287506, 187500.0, 187500.0, 187500.0, 187500.0, 187500.0, -91656.39032797699, 0.022, -0.018000000000000002, 0.976, 192.0, 0.0, 0.0, 0.0, 0.0, 0.0, 0.0, 0.0, 0.0, 0.0, 1.717238019680684E9, 0.0, 2024-06-01 03:33:39.680
41.0, 187500.0, -33680.86024294618, 187500.0, 187500.0, 187500.0, 187500.0, 187500.0, -91651.58470291909, 0.022, -0.018000000000000002, 0.976, 192.0, 0.0, 0.0, 0.0, 0.0, 0.0, 0.0, 0.0, 0.0, 0.0, 1.7172380196807E9, 0.0, 2024-06-01 03:33:39.680
42.0, 187500.0, -33691.991411684925, 187500.0, 187500.0, 187500.0, 187500.0, 187500.0, -91648.18723776189, 0.022, -0.018000000000000002, 0.976, 192.0, 0.0, 0.0, 0.0, 0.0, 0.0, 0.0, 0.0, 0.0, 0.0, 1.7172380196807165E9, 0.0, 2024-06-01 03:33:39.680
43.0, 187500.0, -33688.81746397227, 187500.0, 187500.0, 187500.0, 187500.0, 187500.0, -91653.0822697976, 0.022, -0.018000000000000002, 0.976, 192.0, 0.0, 0.0, 0.0, 0.0, 0.0, 0.0, 0.0, 0.0, 0.0, 1.7172380196807327E9, 0.0, 2024-06-01 03:33:39.680
44.0, 187500.0, -33677.06044638878, 187500.0, 187500.0, 187500.0, 187500.0, 187500.0, -91657.7314326443, 0.022, -0.018000000000000002, 0.976, 192.0, 0.0, 0.0, 0.0, 0.0, 0.0, 0.0, 0.0, 0.0, 0.0, 1.7172380196807516E9, 0.0, 2024-06-01 03:33:39.680
45.0, 187500.0, -33669.93023990753, 187500.0, 187500.0, 187500.0, 187500.0, 187500.0, -91646.30969122764, 0.022, -0.018000000000000002, 0.976, 192.0, 0.0, 0.0, 0.0, 0.0, 0.0, 0.0, 0.0, 0.0, 0.0, 1.717238019680768E9, 0.0, 2024-06-01 03:33:39.680
46.0, 187500.0, -33680.033228401335, 187500.0, 187500.0, 187500.0, 187500.0, 187500.0, -91645.72854587181, 0.022, -0.018000000000000002, 0.976, 192.0, 0.0, 0.0, 0.0, 0.0, 0.0, 0.0, 0.0, 0.0, 0.0, 1.7172380196808E9, 0.0, 2024-06-01 03:33:39.680
47.0, 187500.0, -33687.11873139367, 187500.0, 187500.0, 187500.0, 187500.0, 187500.0, -91656.0327000657, 0.022, -0.016, 0.978, 192.0, 0.0, 176.0, 255.0, 128.0, 30.0, 144.0, 0.0, 0.0, 0.0, 1.7172380196808178E9, 0.0, 2024-06-01 03:33:39.680
48.0, 187500.0, -33674.13236786513, 187500.0, 187500.0, 187500.0, 187500.0, 187500.0, -91660.79362163469, 0.022, -0.016, 0.978, 192.0, 0.0, 0.0, 0.0, 0.0, 0.0, 0.0, 0.0, 0.0, 0.0, 1.717238019680835E9, 0.0, 2024-06-01 03:33:39.680
49.0, 187500.0, -33661.302466547786, 187500.0, 187500.0, 187500.0, 187500.0, 187500.0, -91647.82960985061, 0.022, -0.016, 0.978, 192.0, 0.0, 0.0, 0.0, 0.0, 0.0, 0.0, 0.0, 0.0, 0.0, 1.7172380196808515E9, 0.0, 2024-06-01 03:33:39.680
50.0, 187500.0, -33671.87484167515, 187500.0, 187500.0, 187500.0, 187500.0, 187500.0, -91636.4302201784, 0.022, -0.016, 0.978, 192.0, 0.0, 0.0, 0.0, 0.0, 0.0, 0.0, 0.0, 0.0, 0.0, 1.717238019680868E9, 0.0, 2024-06-01 03:33:39.680
51.0, 187500.0, -33674.1994230985, 187500.0, 187500.0, 187500.0, 187500.0, 187500.0, -91634.5750253886, 0.022, -0.016, 0.978, 192.0, 0.0, 0.0, 0.0, 0.0, 0.0, 0.0, 0.0, 0.0, 0.0, 1.7172380196808841E9, 0.0, 2024-06-01 03:33:39.680
52.0, 187500.0, -33661.436577014516, 187500.0, 187500.0, 187500.0, 187500.0, 187500.0, -91644.58860690458, 0.022, -0.016, 0.978, 192.0, 0.0, 0.0, 0.0, 0.0, 0.0, 0.0, 0.0, 0.0, 0.0, 1.7172380196809003E9, 0.0, 2024-06-01 03:33:39.680
53.0, 187500.0, -33653.43465249952, 187500.0, 187500.0, 187500.0, 187500.0, 187500.0, -91645.19210400488, 0.022, -0.016, 0.978, 192.0, 0.0, 0.0, 0.0, 0.0, 0.0, 0.0, 0.0, 0.0, 0.0, 1.7172380196809168E9, 0.0, 2024-06-01 03:33:39.680
54.0, 187500.0, -33659.35786478018, 187500.0, 187500.0, 187500.0, 187500.0, 187500.0, -91635.80437133365, 0.022, -0.016, 0.978, 192.0, 0.0, 0.0, 0.0, 0.0, 0.0, 0.0, 0.0, 0.0, 0.0, 1.717238019680936E9, 0.0, 2024-06-01 03:33:39.680
55.0, 187500.0, -33671.651324230595, 187500.0, 187500.0, 187500.0, 187500.0, 187500.0, -91646.53320867219, 0.022, -0.016, 0.978, 192.0, 0.0, 0.0, 0.0, 0.0, 0.0, 0.0, 0.0, 0.0, 0.0, 1.7172380196809523E9, 0.0, 2024-06-01 03:33:39.680
56.0, 187500.0, -33668.2985625623, 187500.0, 187500.0, 187500.0, 187500.0, 187500.0, -91660.86067686805, 0.022, -0.016, 0.978, 192.0, 0.0, 0.0, 0.0, 0.0, 0.0, 0.0, 0.0, 0.0, 0.0, 1.7172380196809688E9, 0.0, 2024-06-01 03:33:39.680
57.0, 187500.0, -33650.238353042405, 187500.0, 187500.0, 187500.0, 187500.0, 187500.0, -91645.14740051597, 0.018000000000000002, -0.012, 0.98, 192.0, 0.0, 144.0, 255.0, 160.0, 30.0, 160.0, 0.0, 0.0, 0.0, 1.717238019680985E9, 0.0, 2024-06-01 03:33:39.680
58.0, 187500.0, -33650.864201887154, 187500.0, 187500.0, 187500.0, 187500.0, 187500.0, -91631.51283639824, 0.018000000000000002, -0.012, 0.98, 192.0, 0.0, 0.0, 0.0, 0.0, 0.0, 0.0, 0.0, 0.0, 0.0, 1.717238019681002E9, 0.0, 2024-06-01 03:33:39.681
59.0, 187500.0, -33660.743672936405, 187500.0, 187500.0, 187500.0, 187500.0, 187500.0, -91637.90543531245, 0.018000000000000002, -0.012, 0.98, 192.0, 0.0, 0.0, 0.0, 0.0, 0.0, 0.0, 0.0, 0.0, 0.0, 1.717238019681018E9, 0.0, 2024-06-01 03:33:39.681
60.0, 187500.0, -33655.491012989405, 187500.0, 187500.0, 187500.0, 187500.0, 187500.0, -91643.1804470039, 0.018000000000000002, -0.012, 0.98, 192.0, 0.0, 0.0, 0.0, 0.0, 0.0, 0.0, 0.0, 0.0, 0.0, 1.7172380196810353E9, 0.0, 2024-06-01 03:33:39.681
61.0, 187500.0, -33640.4929924599, 187500.0, 187500.0, 187500.0, 187500.0, 187500.0, -91632.98805153229, 0.018000000000000002, -0.012, 0.98, 192.0, 0.0, 0.0, 0.0, 0.0, 0.0, 0.0, 0.0, 0.0, 0.0, 1.717238019681081E9, 0.0, 2024-06-01 03:33:39.681
62.0, 187500.0, -33641.69998666048, 187500.0, 187500.0, 187500.0, 187500.0, 187500.0, -91624.53909212818, 0.018000000000000002, -0.012, 0.98, 192.0, 0.0, 0.0, 0.0, 0.0, 0.0, 0.0, 0.0, 0.0, 0.0, 1.717238019681098E9, 0.0, 2024-06-01 03:33:39.681
63.0, 187500.0, -33647.91377161906, 187500.0, 187500.0, 187500.0, 187500.0, 187500.0, -91628.76357183023, 0.018000000000000002, -0.012, 0.98, 192.0, 0.0, 0.0, 0.0, 0.0, 0.0, 0.0, 0.0, 0.0, 0.0, 1.7172380196811152E9, 0.0, 2024-06-01 03:33:39.681
64.0, 187500.0, -33647.176164052034, 187500.0, 187500.0, 187500.0, 187500.0, 187500.0, -91638.21835973482, 0.018000000000000002, -0.012, 0.98, 192.0, 0.0, 0.0, 0.0, 0.0, 0.0, 0.0, 0.0, 0.0, 0.0, 1.7172380196811314E9, 0.0, 2024-06-01 03:33:39.681
65.0, 187500.0, -33654.10520483318, 187500.0, 187500.0, 187500.0, 187500.0, 187500.0, -91653.86458085354, 0.018000000000000002, -0.012, 0.98, 192.0, 0.0, 0.0, 0.0, 0.0, 0.0, 0.0, 0.0, 0.0, 0.0, 1.71723801968115E9, 0.0, 2024-06-01 03:33:39.681
66.0, 187500.0, -33650.79714665379, 187500.0, 187500.0, 187500.0, 187500.0, 187500.0, -91644.96858656032, 0.018000000000000002, -0.012, 0.98, 192.0, 0.0, 0.0, 0.0, 0.0, 0.0, 0.0, 0.0, 0.0, 0.0, 1.7172380196811645E9, 0.0, 2024-06-01 03:33:39.681
67.0, 187500.0, -33650.95360886498, 187500.0, 187500.0, 187500.0, 187500.0, 187500.0, -91623.1756357164, 0.018000000000000002, -0.014, 0.984, 192.0, 0.0, 144.0, 255.0, 144.0, 30.0, 192.0, 0.0, 0.0, 0.0, 1.7172380196811776E9, 0.0, 2024-06-01 03:33:39.681
68.0, 187500.0, -33656.87682114563, 187500.0, 187500.0, 187500.0, 187500.0, 187500.0, -91629.34471718606, 0.018000000000000002, -0.014, 0.984, 192.0, 0.0, 0.0, 0.0, 0.0, 0.0, 0.0, 0.0, 0.0, 0.0, 1.7172380196811917E9, 0.0, 2024-06-01 03:33:39.681
69.0, 187500.0, -33645.209210539964, 187500.0, 187500.0, 187500.0, 187500.0, 187500.0, -91642.24167373677, 0.018000000000000002, -0.014, 0.984, 192.0, 0.0, 0.0, 0.0, 0.0, 0.0, 0.0, 0.0, 0.0, 0.0, 1.7172380196812048E9, 0.0, 2024-06-01 03:33:39.681
70.0, 187500.0, -33643.84575412819, 187500.0, 187500.0, 187500.0, 187500.0, 187500.0, -91641.01232779173, 0.018000000000000002, -0.014, 0.984, 192.0, 0.0, 0.0, 0.0, 0.0, 0.0, 0.0, 0.0, 0.0, 0.0, 1.717238019681218E9, 0.0, 2024-06-01 03:33:39.681
71.0, 187500.0, -33647.33262626322, 187500.0, 187500.0, 187500.0, 187500.0, 187500.0, -91631.91516779842, 0.018000000000000002, -0.014, 0.984, 192.0, 0.0, 0.0, 0.0, 0.0, 0.0, 0.0, 0.0, 0.0, 0.0, 1.7172380196812308E9, 0.0, 2024-06-01 03:33:39.681
72.0, 187500.0, -33652.2947135323, 187500.0, 187500.0, 187500.0, 187500.0, 187500.0, -91634.99970853326, 0.018000000000000002, -0.014, 0.984, 192.0, 0.0, 0.0, 0.0, 0.0, 0.0, 0.0, 0.0, 0.0, 0.0, 1.7172380196812437E9, 0.0, 2024-06-01 03:33:39.681
73.0, 187500.0, -33646.41620474055, 187500.0, 187500.0, 187500.0, 187500.0, 187500.0, -91642.57694990361, 0.018000000000000002, -0.014, 0.984, 192.0, 0.0, 0.0, 0.0, 0.0, 0.0, 0.0, 0.0, 0.0, 0.0, 1.7172380196812568E9, 0.0, 2024-06-01 03:33:39.681
74.0, 187500.0, -33640.47064071544, 187500.0, 187500.0, 187500.0, 187500.0, 187500.0, -91637.25723472325, 0.018000000000000002, -0.014, 0.984, 192.0, 0.0, 0.0, 0.0, 0.0, 0.0, 0.0, 0.0, 0.0, 0.0, 1.71723801968127E9, 0.0, 2024-06-01 03:33:39.681
75.0, 187500.0, -33647.77966115232, 187500.0, 187500.0, 187500.0, 187500.0, 187500.0, -91628.98708927479, 0.018000000000000002, -0.014, 0.984, 192.0, 0.0, 0.0, 0.0, 0.0, 0.0, 0.0, 0.0, 0.0, 0.0, 1.7172380196812828E9, 0.0, 2024-06-01 03:33:39.681
76.0, 187500.0, -33652.0935478322, 187500.0, 187500.0, 187500.0, 187500.0, 187500.0, -91627.71303984083, 0.018000000000000002, -0.014, 0.984, 192.0, 0.0, 0.0, 0.0, 0.0, 0.0, 0.0, 0.0, 0.0, 0.0, 1.7172380196812956E9, 0.0, 2024-06-01 03:33:39.681
77.0, 187500.0, -33642.638759927606, 187500.0, 187500.0, 187500.0, 187500.0, 187500.0, -91631.91516779842, 0.016, -0.018000000000000002, 0.988, 192.0, 0.0, 128.0, 255.0, 112.0, 30.0, 224.0, 0.0, 0.0, 0.0, 1.7172380196813178E9, 0.0, 2024-06-01 03:33:39.681
78.0, 187500.0, -33632.64753015608, 187500.0, 187500.0, 187500.0, 187500.0, 187500.0, -91625.65667935094, 0.016, -0.018000000000000002, 0.988, 192.0, 0.0, 0.0, 0.0, 0.0, 0.0, 0.0, 0.0, 0.0, 0.0, 1.7172380196813316E9, 0.0, 2024-06-01 03:33:39.681
79.0, 187500.0, -33640.31417850425, 187500.0, 187500.0, 187500.0, 187500.0, 187500.0, -91615.24076643477, 0.016, -0.018000000000000002, 0.988, 192.0, 0.0, 0.0, 0.0, 0.0, 0.0, 0.0, 0.0, 0.0, 0.0, 1.7172380196813447E9, 0.0, 2024-06-01 03:33:39.681
80.0, 187500.0, -33644.65041692858, 187500.0, 187500.0, 187500.0, 187500.0, 187500.0, -91621.63336534899, 0.016, -0.018000000000000002, 0.988, 192.0, 0.0, 0.0, 0.0, 0.0, 0.0, 0.0, 0.0, 0.0, 0.0, 1.7172380196813579E9, 0.0, 2024-06-01 03:33:39.681
81.0, 187500.0, -33638.32487324773, 187500.0, 187500.0, 187500.0, 187500.0, 187500.0, -91637.54780740116, 0.016, -0.018000000000000002, 0.988, 192.0, 0.0, 0.0, 0.0, 0.0, 0.0, 0.0, 0.0, 0.0, 0.0, 1.7172380196813707E9, 0.0, 2024-06-01 03:33:39.681
82.0, 187500.0, -33630.90409408857, 187500.0, 187500.0, 187500.0, 187500.0, 187500.0, -91630.7305253423, 0.016, -0.018000000000000002, 0.988, 192.0, 0.0, 0.0, 0.0, 0.0, 0.0, 0.0, 0.0, 0.0, 0.0, 1.7172380196813838E9, 0.0, 2024-06-01 03:33:39.681
83.0, 187500.0, -33640.381233737615, 187500.0, 187500.0, 187500.0, 187500.0, 187500.0, -91623.6226706055, 0.016, -0.018000000000000002, 0.988, 192.0, 0.0, 0.0, 0.0, 0.0, 0.0, 0.0, 0.0, 0.0, 0.0, 1.7172380196813967E9, 0.0, 2024-06-01 03:33:39.681
84.0, 187500.0, -33650.864201887154, 187500.0, 187500.0, 187500.0, 187500.0, 187500.0, -91632.85394106555, 0.016, -0.018000000000000002, 0.988, 192.0, 0.0, 0.0, 0.0, 0.0, 0.0, 0.0, 0.0, 0.0, 0.0, 1.7172380196814096E9, 0.0, 2024-06-01 03:33:39.681
85.0, 187500.0, -33643.42107098354, 187500.0, 187500.0, 187500.0, 187500.0, 187500.0, -91642.1299150145, 0.016, -0.018000000000000002, 0.988, 192.0, 0.0, 0.0, 0.0, 0.0, 0.0, 0.0, 0.0, 0.0, 0.0, 1.7172380196814227E9, 0.0, 2024-06-01 03:33:39.681
86.0, 187500.0, -33632.938102834, 187500.0, 187500.0, 187500.0, 187500.0, 187500.0, -91640.90056906946, 0.016, -0.018000000000000002, 0.988, 192.0, 0.0, 0.0, 0.0, 0.0, 0.0, 0.0, 0.0, 0.0, 0.0, 1.7172380196814358E9, 0.0, 2024-06-01 03:33:39.681
87.0, 187500.0, -33628.713623131945, 187500.0, 187500.0, 187500.0, 187500.0, 187500.0, -91624.56144387263, 0.016, -0.022, 0.982, 192.0, 0.0, 128.0, 255.0, 80.0, 30.0, 176.0, 0.0, 0.0, 0.0, 1.7172380196814504E9, 0.0, 2024-06-01 03:33:39.681
88.0, 187500.0, -33641.23060002692, 187500.0, 187500.0, 187500.0, 187500.0, 187500.0, -91624.65085085045, 0.016, -0.022, 0.982, 192.0, 0.0, 0.0, 0.0, 0.0, 0.0, 0.0, 0.0, 0.0, 0.0, 1.7172380196814644E9, 0.0, 2024-06-01 03:33:39.681
89.0, 187500.0, -33649.545448964294, 187500.0, 187500.0, 187500.0, 187500.0, 187500.0, -91645.05799353815, 0.016, -0.022, 0.982, 192.0, 0.0, 0.0, 0.0, 0.0, 0.0, 0.0, 0.0, 0.0, 0.0, 1.7172380196814773E9, 0.0, 2024-06-01 03:33:39.681
90.0, 187500.0, -33636.15675403557, 187500.0, 187500.0, 187500.0, 187500.0, 187500.0, -91649.01425230673, 0.016, -0.022, 0.982, 192.0, 0.0, 0.0, 0.0, 0.0, 0.0, 0.0, 0.0, 0.0, 0.0, 1.7172380196814904E9, 0.0, 2024-06-01 03:33:39.681
91.0, 187500.0, -33630.23354175491, 187500.0, 187500.0, 187500.0, 187500.0, 187500.0, -91632.29514745416, 0.016, -0.022, 0.982, 192.0, 0.0, 0.0, 0.0, 0.0, 0.0, 0.0, 0.0, 0.0, 0.0, 1.7172380196815033E9, 0.0, 2024-06-01 03:33:39.681
92.0, 187500.0, -33639.91184710406, 187500.0, 187500.0, 187500.0, 187500.0, 187500.0, -91627.46717065181, 0.016, -0.022, 0.982, 192.0, 0.0, 0.0, 0.0, 0.0, 0.0, 0.0, 0.0, 0.0, 0.0, 1.717238019681524E9, 0.0, 2024-06-01 03:33:39.681
93.0, 187500.0, -33636.44732671348, 187500.0, 187500.0, 187500.0, 187500.0, 187500.0, -91628.76357183023, 0.016, -0.022, 0.982, 192.0, 0.0, 0.0, 0.0, 0.0, 0.0, 0.0, 0.0, 0.0, 0.0, 1.7172380196815372E9, 0.0, 2024-06-01 03:33:39.681
94.0, 187500.0, -33629.29476848779, 187500.0, 187500.0, 187500.0, 187500.0, 187500.0, -91627.86950205201, 0.016, -0.022, 0.982, 192.0, 0.0, 0.0, 0.0, 0.0, 0.0, 0.0, 0.0, 0.0, 0.0, 1.7172380196815505E9, 0.0, 2024-06-01 03:33:39.681
95.0, 187500.0, -33626.545503919784, 187500.0, 187500.0, 187500.0, 187500.0, 187500.0, -91618.01238274723, 0.016, -0.022, 0.982, 192.0, 0.0, 0.0, 0.0, 0.0, 0.0, 0.0, 0.0, 0.0, 0.0, 1.7172380196815634E9, 0.0, 2024-06-01 03:33:39.681
96.0, 187500.0, -33632.89339934509, 187500.0, 187500.0, 187500.0, 187500.0, 187500.0, -91606.54593784166, 0.016, -0.022, 0.982, 192.0, 0.0, 0.0, 0.0, 0.0, 0.0, 0.0, 0.0, 0.0, 0.0, 1.7172380196815765E9, 0.0, 2024-06-01 03:33:39.681
97.0, 187500.0, -33637.63196916962, 187500.0, 187500.0, 187500.0, 187500.0, 187500.0, -91624.15911247244, 0.014, -0.024, 0.984, 192.0, 0.0, 112.0, 255.0, 64.0, 30.0, 192.0, 0.0, 0.0, 0.0, 1.7172380196815891E9, 0.0, 2024-06-01 03:33:39.681
98.0, 187500.0, -33625.56202716375, 187500.0, 187500.0, 187500.0, 187500.0, 187500.0, -91635.87142656701, 0.014, -0.024, 0.984, 192.0, 0.0, 0.0, 0.0, 0.0, 0.0, 0.0, 0.0, 0.0, 0.0, 1.7172380196816027E9, 0.0, 2024-06-01 03:33:39.681
99.0, 187500.0, -33614.65437586956, 187500.0, 187500.0, 187500.0, 187500.0, 187500.0, -91624.4720368948, 0.014, -0.024, 0.984, 192.0, 0.0, 0.0, 0.0, 0.0, 0.0, 0.0, 0.0, 0.0, 0.0, 1.717238019681616E9, 0.0, 2024-06-01 03:33:39.681
100.0, 187500.0, -33622.768059106835, 187500.0, 187500.0, 187500.0, 187500.0, 187500.0, -91621.0745717376, 0.014, -0.024, 0.984, 192.0, 0.0, 0.0, 0.0, 0.0, 0.0, 0.0, 0.0, 0.0, 0.0, 1.7172380196816287E9, 0.0, 2024-06-01 03:33:39.681
101.0, 187500.0, -33628.06542254274, 187500.0, 187500.0, 187500.0, 187500.0, 187500.0, -91625.29905143965, 0.014, -0.024, 0.984, 192.0, 0.0, 0.0, 0.0, 0.0, 0.0, 0.0, 0.0, 0.0, 0.0, 1.717238019681642E9, 0.0, 2024-06-01 03:33:39.681
102.0, 187500.0, -33614.54261714729, 187500.0, 187500.0, 187500.0, 187500.0, 187500.0, -91622.30391768264, 0.014, -0.024, 0.984, 192.0, 0.0, 0.0, 0.0, 0.0, 0.0, 0.0, 0.0, 0.0, 0.0, 1.7172380196816547E9, 0.0, 2024-06-01 03:33:39.681
103.0, 187500.0, -33606.31717518773, 187500.0, 187500.0, 187500.0, 187500.0, 187500.0, -91614.86078677903, 0.014, -0.024, 0.984, 192.0, 0.0, 0.0, 0.0, 0.0, 0.0, 0.0, 0.0, 0.0, 0.0, 1.7172380196816676E9, 0.0, 2024-06-01 03:33:39.681
104.0, 187500.0, -33611.167503734534, 187500.0, 187500.0, 187500.0, 187500.0, 187500.0, -91602.14264418396, 0.014, -0.024, 0.984, 192.0, 0.0, 0.0, 0.0, 0.0, 0.0, 0.0, 0.0, 0.0, 0.0, 1.717238019681681E9, 0.0, 2024-06-01 03:33:39.681
105.0, 187500.0, -33619.81762883873, 187500.0, 187500.0, 187500.0, 187500.0, 187500.0, -91596.77822551469, 0.014, -0.024, 0.984, 192.0, 0.0, 0.0, 0.0, 0.0, 0.0, 0.0, 0.0, 0.0, 0.0, 1.7172380196816938E9, 0.0, 2024-06-01 03:33:39.681
106.0, 187500.0, -33611.97216653492, 187500.0, 187500.0, 187500.0, 187500.0, 187500.0, -91606.65769656393, 0.014, -0.024, 0.984, 192.0, 0.0, 0.0, 0.0, 0.0, 0.0, 0.0, 0.0, 0.0, 0.0, 1.717238019681707E9, 0.0, 2024-06-01 03:33:39.681
107.0, 187500.0, -33598.78463730629, 187500.0, 187500.0, 187500.0, 187500.0, 187500.0, -91608.73640879827, 0.014, -0.024, 0.986, 192.0, 0.0, 112.0, 255.0, 64.0, 30.0, 208.0, 0.0, 0.0, 0.0, 1.7172380196817276E9, 0.0, 2024-06-01 03:33:39.681
108.0, 187500.0, -33604.596090864674, 187500.0, 187500.0, 187500.0, 187500.0, 187500.0, -91606.59064133056, 0.014, -0.024, 0.986, 192.0, 0.0, 0.0, 0.0, 0.0, 0.0, 0.0, 0.0, 0.0, 0.0, 1.717238019681743E9, 0.0, 2024-06-01 03:33:39.681
109.0, 187500.0, -33615.861370070146, 187500.0, 187500.0, 187500.0, 187500.0, 187500.0, -91606.27771690818, 0.014, -0.024, 0.986, 192.0, 0.0, 0.0, 0.0, 0.0, 0.0, 0.0, 0.0, 0.0, 0.0, 1.717238019681756E9, 0.0, 2024-06-01 03:33:39.681
110.0, 187500.0, -33609.02173626682, 187500.0, 187500.0, 187500.0, 187500.0, 187500.0, -91610.45749312133, 0.014, -0.024, 0.986, 192.0, 0.0, 0.0, 0.0, 0.0, 0.0, 0.0, 0.0, 0.0, 0.0, 1.717238019681769E9, 0.0, 2024-06-01 03:33:39.681
111.0, 187500.0, -33597.55529136125, 187500.0, 187500.0, 187500.0, 187500.0, 187500.0, -91613.56438560062, 0.014, -0.024, 0.986, 192.0, 0.0, 0.0, 0.0, 0.0, 0.0, 0.0, 0.0, 0.0, 0.0, 1.717238019681782E9, 0.0, 2024-06-01 03:33:39.681
112.0, 187500.0, -33603.25498619735, 187500.0, 187500.0, 187500.0, 187500.0, 187500.0, -91617.34183041357, 0.014, -0.024, 0.986, 192.0, 0.0, 0.0, 0.0, 0.0, 0.0, 0.0, 0.0, 0.0, 0.0, 1.7172380196817963E9, 0.0, 2024-06-01 03:33:39.681
113.0, 187500.0, -33617.26952997083, 187500.0, 187500.0, 187500.0, 187500.0, 187500.0, -91616.38070540199, 0.014, -0.024, 0.986, 192.0, 0.0, 0.0, 0.0, 0.0, 0.0, 0.0, 0.0, 0.0, 0.0, 1.717238019681811E9, 0.0, 2024-06-01 03:33:39.681
114.0, 187500.0, -33612.12862874611, 187500.0, 187500.0, 187500.0, 187500.0, 187500.0, -91613.34086815607, 0.014, -0.024, 0.986, 192.0, 0.0, 0.0, 0.0, 0.0, 0.0, 0.0, 0.0, 0.0, 0.0, 1.717238019681824E9, 0.0, 2024-06-01 03:33:39.681
115.0, 187500.0, -33602.07034374122, 187500.0, 187500.0, 187500.0, 187500.0, 187500.0, -91612.67031582241, 0.014, -0.024, 0.986, 192.0, 0.0, 0.0, 0.0, 0.0, 0.0, 0.0, 0.0, 0.0, 0.0, 1.7172380196818373E9, 0.0, 2024-06-01 03:33:39.681
116.0, 187500.0, -33604.260814697845, 187500.0, 187500.0, 187500.0, 187500.0, 187500.0, -91605.6742198079, 0.014, -0.024, 0.986, 192.0, 0.0, 0.0, 0.0, 0.0, 0.0, 0.0, 0.0, 0.0, 0.0, 1.7172380196818504E9, 0.0, 2024-06-01 03:33:39.681
117.0, 187500.0, -33610.02756476731, 187500.0, 187500.0, 187500.0, 187500.0, 187500.0, -91594.0736644356, 0.02, -0.024, 0.984, 192.0, 0.0, 160.0, 255.0, 64.0, 30.0, 192.0, 0.0, 0.0, 0.0, 1.7172380196818633E9, 0.0, 2024-06-01 03:33:39.681
118.0, 187500.0, -33620.532884661305, 187500.0, 187500.0, 187500.0, 187500.0, 187500.0, -91611.48567336627, 0.02, -0.024, 0.984, 192.0, 0.0, 0.0, 0.0, 0.0, 0.0, 0.0, 0.0, 0.0, 0.0, 1.717238019681877E9, 0.0, 2024-06-01 03:33:39.681
119.0, 187500.0, -33611.12280024562, 187500.0, 187500.0, 187500.0, 187500.0, 187500.0, -91623.75678107224, 0.02, -0.024, 0.984, 192.0, 0.0, 0.0, 0.0, 0.0, 0.0, 0.0, 0.0, 0.0, 0.0, 1.71723801968189E9, 0.0, 2024-06-01 03:33:39.681
120.0, 187500.0, -33597.93527101699, 187500.0, 187500.0, 187500.0, 187500.0, 187500.0, -91614.63726933447, 0.02, -0.024, 0.984, 192.0, 0.0, 0.0, 0.0, 0.0, 0.0, 0.0, 0.0, 0.0, 0.0, 1.717238019681903E9, 0.0, 2024-06-01 03:33:39.681
121.0, 187500.0, -33612.642718868585, 187500.0, 187500.0, 187500.0, 187500.0, 187500.0, -91615.66544957942, 0.02, -0.024, 0.984, 192.0, 0.0, 0.0, 0.0, 0.0, 0.0, 0.0, 0.0, 0.0, 0.0, 1.7172380201578157E9, 0.0, 2024-06-01 03:33:40.157
122.0, 187500.0, -33621.56106490625, 187500.0, 187500.0, 187500.0, 187500.0, 187500.0, -91625.2766996952, 0.02, -0.024, 0.984, 192.0, 0.0, 0.0, 0.0, 0.0, 0.0, 0.0, 0.0, 0.0, 0.0, 1.7172380201579688E9, 0.0, 2024-06-01 03:33:40.157
123.0, 187500.0, -33614.60967238065, 187500.0, 187500.0, 187500.0, 187500.0, 187500.0, -91628.71886834131, 0.02, -0.024, 0.984, 192.0, 0.0, 0.0, 0.0, 0.0, 0.0, 0.0, 0.0, 0.0, 0.0, 1.717238020158013E9, 0.0, 2024-06-01 03:33:40.158
124.0, 187500.0, -33609.24525371138, 187500.0, 187500.0, 187500.0, 187500.0, 187500.0, -91623.93559502788, 0.02, -0.024, 0.984, 192.0, 0.0, 0.0, 0.0, 0.0, 0.0, 0.0, 0.0, 0.0, 0.0, 1.717238020158044E9, 0.0, 2024-06-01 03:33:40.158
125.0, 187500.0, -33617.89537881558, 187500.0, 187500.0, 187500.0, 187500.0, 187500.0, -91618.21354844733, 0.02, -0.024, 0.984, 192.0, 0.0, 0.0, 0.0, 0.0, 0.0, 0.0, 0.0, 0.0, 0.0, 1.7172380201580687E9, 0.0, 2024-06-01 03:33:40.158
126.0, 187500.0, -33628.95949232096, 187500.0, 187500.0, 187500.0, 187500.0, 187500.0, -91620.73929557078, 0.02, -0.024, 0.984, 192.0, 0.0, 0.0, 0.0, 0.0, 0.0, 0.0, 0.0, 0.0, 0.0, 1.7172380201580853E9, 0.0, 2024-06-01 03:33:40.158
127.0, 187500.0, -33617.403640437566, 187500.0, 187500.0, 187500.0, 187500.0, 187500.0, -91624.91907178391, 0.022, -0.022, 0.98, 192.0, 0.0, 176.0, 255.0, 80.0, 30.0, 160.0, 0.0, 0.0, 0.0, 1.7172380201581025E9, 0.0, 2024-06-01 03:33:40.158
128.0, 187500.0, -33600.617480351626, 187500.0, 187500.0, 187500.0, 187500.0, 187500.0, -91613.49733036726, 0.022, -0.022, 0.98, 192.0, 0.0, 0.0, 0.0, 0.0, 0.0, 0.0, 0.0, 0.0, 0.0, 1.7172380201581204E9, 0.0, 2024-06-01 03:33:40.158
129.0, 187500.0, -33609.11114324464, 187500.0, 187500.0, 187500.0, 187500.0, 187500.0, -91608.53524309817, 0.022, -0.022, 0.98, 192.0, 0.0, 0.0, 0.0, 0.0, 0.0, 0.0, 0.0, 0.0, 0.0, 1.717238020158137E9, 0.0, 2024-06-01 03:33:40.158
130.0, 187500.0, -33620.57758815022, 187500.0, 187500.0, 187500.0, 187500.0, 187500.0, -91623.30974618313, 0.022, -0.022, 0.98, 192.0, 0.0, 0.0, 0.0, 0.0, 0.0, 0.0, 0.0, 0.0, 0.0, 1.7172380201581535E9, 0.0, 2024-06-01 03:33:40.158
131.0, 187500.0, -33618.52122766033, 187500.0, 187500.0, 187500.0, 187500.0, 187500.0, -91636.36316494503, 0.022, -0.022, 0.98, 192.0, 0.0, 0.0, 0.0, 0.0, 0.0, 0.0, 0.0, 0.0, 0.0, 1.71723802015817E9, 0.0, 2024-06-01 03:33:40.158
132.0, 187500.0, -33603.053820497254, 187500.0, 187500.0, 187500.0, 187500.0, 187500.0, -91627.33306018509, 0.022, -0.022, 0.98, 192.0, 0.0, 0.0, 0.0, 0.0, 0.0, 0.0, 0.0, 0.0, 0.0, 1.7172380201581862E9, 0.0, 2024-06-01 03:33:40.158
133.0, 187500.0, -33609.84875081167, 187500.0, 187500.0, 187500.0, 187500.0, 187500.0, -91625.5225688842, 0.022, -0.022, 0.98, 192.0, 0.0, 0.0, 0.0, 0.0, 0.0, 0.0, 0.0, 0.0, 0.0, 1.717238020158203E9, 0.0, 2024-06-01 03:33:40.158
134.0, 187500.0, -33620.242311983384, 187500.0, 187500.0, 187500.0, 187500.0, 187500.0, -91625.85784505104, 0.022, -0.022, 0.98, 192.0, 0.0, 0.0, 0.0, 0.0, 0.0, 0.0, 0.0, 0.0, 0.0, 1.717238020158219E9, 0.0, 2024-06-01 03:33:40.158
135.0, 187500.0, -33615.95077704797, 187500.0, 187500.0, 187500.0, 187500.0, 187500.0, -91628.4729991523, 0.022, -0.022, 0.98, 192.0, 0.0, 0.0, 0.0, 0.0, 0.0, 0.0, 0.0, 0.0, 0.0, 1.7172380201582353E9, 0.0, 2024-06-01 03:33:40.158
136.0, 187500.0, -33604.46198039794, 187500.0, 187500.0, 187500.0, 187500.0, 187500.0, -91620.4710746373, 0.022, -0.022, 0.98, 192.0, 0.0, 0.0, 0.0, 0.0, 0.0, 0.0, 0.0, 0.0, 0.0, 1.7172380201582515E9, 0.0, 2024-06-01 03:33:40.158
137.0, 187500.0, -33603.79142806428, 187500.0, 187500.0, 187500.0, 187500.0, 187500.0, -91612.35739140003, 0.022, -0.022, 0.978, 192.0, 0.0, 176.0, 255.0, 80.0, 30.0, 144.0, 0.0, 0.0, 0.0, 1.7172380201582828E9, 0.0, 2024-06-01 03:33:40.158
138.0, 187500.0, -33606.65245135456, 187500.0, 187500.0, 187500.0, 187500.0, 187500.0, -91606.34477214156, 0.022, -0.022, 0.978, 192.0, 0.0, 0.0, 0.0, 0.0, 0.0, 0.0, 0.0, 0.0, 0.0, 1.7172380201582997E9, 0.0, 2024-06-01 03:33:40.158
139.0, 187500.0, -33605.870140298626, 187500.0, 187500.0, 187500.0, 187500.0, 187500.0, -91611.30685941063, 0.022, -0.022, 0.978, 192.0, 0.0, 0.0, 0.0, 0.0, 0.0, 0.0, 0.0, 0.0, 0.0, 1.717238020158316E9, 0.0, 2024-06-01 03:33:40.158
140.0, 187500.0, -33592.146169203064, 187500.0, 187500.0, 187500.0, 187500.0, 187500.0, -91616.91714726892, 0.022, -0.022, 0.978, 192.0, 0.0, 0.0, 0.0, 0.0, 0.0, 0.0, 0.0, 0.0, 0.0, 1.717238020158332E9, 0.0, 2024-06-01 03:33:40.158
141.0, 187500.0, -33594.71661981542, 187500.0, 187500.0, 187500.0, 187500.0, 187500.0, -91613.69849606736, 0.022, -0.022, 0.978, 192.0, 0.0, 0.0, 0.0, 0.0, 0.0, 0.0, 0.0, 0.0, 0.0, 1.7172380201583483E9, 0.0, 2024-06-01 03:33:40.158
142.0, 187500.0, -33606.87596879911, 187500.0, 187500.0, 187500.0, 187500.0, 187500.0, -91613.29616466716, 0.022, -0.022, 0.978, 192.0, 0.0, 0.0, 0.0, 0.0, 0.0, 0.0, 0.0, 0.0, 0.0, 1.7172380201583648E9, 0.0, 2024-06-01 03:33:40.158
143.0, 187500.0, -33613.11210550214, 187500.0, 187500.0, 187500.0, 187500.0, 187500.0, -91622.48273163829, 0.022, -0.022, 0.978, 192.0, 0.0, 0.0, 0.0, 0.0, 0.0, 0.0, 0.0, 0.0, 0.0, 1.7172380201583807E9, 0.0, 2024-06-01 03:33:40.158
144.0, 187500.0, -33599.6787070845, 187500.0, 187500.0, 187500.0, 187500.0, 187500.0, -91625.50021713975, 0.022, -0.022, 0.978, 192.0, 0.0, 0.0, 0.0, 0.0, 0.0, 0.0, 0.0, 0.0, 0.0, 1.7172380201583972E9, 0.0, 2024-06-01 03:33:40.158
145.0, 187500.0, -33596.19183494947, 187500.0, 187500.0, 187500.0, 187500.0, 187500.0, -91617.36418215802, 0.022, -0.022, 0.978, 192.0, 0.0, 0.0, 0.0, 0.0, 0.0, 0.0, 0.0, 0.0, 0.0, 1.7172380201584136E9, 0.0, 2024-06-01 03:33:40.158
146.0, 187500.0, -33612.575663635216, 187500.0, 187500.0, 187500.0, 187500.0, 187500.0, -91614.59256584557, 0.022, -0.022, 0.978, 192.0, 0.0, 0.0, 0.0, 0.0, 0.0, 0.0, 0.0, 0.0, 0.0, 1.7172380201584296E9, 0.0, 2024-06-01 03:33:40.158
147.0, 187500.0, -33613.22386422442, 187500.0, 187500.0, 187500.0, 187500.0, 187500.0, -91617.36418215802, 0.022, -0.022, 0.98, 192.0, 0.0, 176.0, 255.0, 80.0, 30.0, 160.0, 0.0, 0.0, 0.0, 1.7172380201584458E9, 0.0, 2024-06-01 03:33:40.158
148.0, 187500.0, -33598.96345126194, 187500.0, 187500.0, 187500.0, 187500.0, 187500.0, -91624.40498166144, 0.022, -0.022, 0.98, 192.0, 0.0, 0.0, 0.0, 0.0, 0.0, 0.0, 0.0, 0.0, 0.0, 1.7172380201584628E9, 0.0, 2024-06-01 03:33:40.158
149.0, 187500.0, -33586.781750533795, 187500.0, 187500.0, 187500.0, 187500.0, 187500.0, -91615.46428387932, 0.022, -0.022, 0.98, 192.0, 0.0, 0.0, 0.0, 0.0, 0.0, 0.0, 0.0, 0.0, 0.0, 1.7172380201584787E9, 0.0, 2024-06-01 03:33:40.158
150.0, 187500.0, -33591.34150640268, 187500.0, 187500.0, 187500.0, 187500.0, 187500.0, -91606.30006865265, 0.022, -0.022, 0.98, 192.0, 0.0, 0.0, 0.0, 0.0, 0.0, 0.0, 0.0, 0.0, 0.0, 1.717238020158495E9, 0.0, 2024-06-01 03:33:40.158
151.0, 187500.0, -33597.063552983236, 187500.0, 187500.0, 187500.0, 187500.0, 187500.0, -91609.33990589857, 0.022, -0.022, 0.98, 192.0, 0.0, 0.0, 0.0, 0.0, 0.0, 0.0, 0.0, 0.0, 0.0, 1.7172380201585112E9, 0.0, 2024-06-01 03:33:40.158
152.0, 187500.0, -33597.063552983236, 187500.0, 187500.0, 187500.0, 187500.0, 187500.0, -91619.44289439237, 0.022, -0.022, 0.98, 192.0, 0.0, 0.0, 0.0, 0.0, 0.0, 0.0, 0.0, 0.0, 0.0, 1.7172380201585371E9, 0.0, 2024-06-01 03:33:40.158
153.0, 187500.0, -33586.625288322604, 187500.0, 187500.0, 187500.0, 187500.0, 187500.0, -91616.53716761318, 0.022, -0.022, 0.98, 192.0, 0.0, 0.0, 0.0, 0.0, 0.0, 0.0, 0.0, 0.0, 0.0, 1.7172380201585536E9, 0.0, 2024-06-01 03:33:40.158
154.0, 187500.0, -33592.74966630336, 187500.0, 187500.0, 187500.0, 187500.0, 187500.0, -91605.0707227076, 0.022, -0.022, 0.98, 192.0, 0.0, 0.0, 0.0, 0.0, 0.0, 0.0, 0.0, 0.0, 0.0, 1.71723802015857E9, 0.0, 2024-06-01 03:33:40.158
155.0, 187500.0, -33605.60191936516, 187500.0, 187500.0, 187500.0, 187500.0, 187500.0, -91605.94244074136, 0.022, -0.022, 0.98, 192.0, 0.0, 0.0, 0.0, 0.0, 0.0, 0.0, 0.0, 0.0, 0.0, 1.7172380201585865E9, 0.0, 2024-06-01 03:33:40.158
156.0, 187500.0, -33596.10242797166, 187500.0, 187500.0, 187500.0, 187500.0, 187500.0, -91611.91035651093, 0.022, -0.022, 0.98, 192.0, 0.0, 0.0, 0.0, 0.0, 0.0, 0.0, 0.0, 0.0, 0.0, 1.7172380201586027E9, 0.0, 2024-06-01 03:33:40.158
157.0, 187500.0, -33586.60293657815, 187500.0, 187500.0, 187500.0, 187500.0, 187500.0, -91613.47497862279, 0.018000000000000002, -0.02, 0.978, 192.0, 0.0, 144.0, 255.0, 96.0, 30.0, 144.0, 0.0, 0.0, 0.0, 1.7172380201586187E9, 0.0, 2024-06-01 03:33:40.158
158.0, 187500.0, -33587.65346856755, 187500.0, 187500.0, 187500.0, 187500.0, 187500.0, -91606.47888260828, 0.018000000000000002, -0.02, 0.978, 192.0, 0.0, 0.0, 0.0, 0.0, 0.0, 0.0, 0.0, 0.0, 0.0, 1.7172380201586356E9, 0.0, 2024-06-01 03:33:40.158
159.0, 187500.0, -33585.03831446628, 187500.0, 187500.0, 187500.0, 187500.0, 187500.0, -91597.0240947037, 0.018000000000000002, -0.02, 0.978, 192.0, 0.0, 0.0, 0.0, 0.0, 0.0, 0.0, 0.0, 0.0, 0.0, 1.7172380201586518E9, 0.0, 2024-06-01 03:33:40.158
160.0, 187500.0, -33583.4289888655, 187500.0, 187500.0, 187500.0, 187500.0, 187500.0, -91609.09403670956, 0.018000000000000002, -0.02, 0.978, 192.0, 0.0, 0.0, 0.0, 0.0, 0.0, 0.0, 0.0, 0.0, 0.0, 1.717238020158668E9, 0.0, 2024-06-01 03:33:40.158
161.0, 187500.0, -33571.06847418171, 187500.0, 187500.0, 187500.0, 187500.0, 187500.0, -91610.09986521005, 0.018000000000000002, -0.02, 0.978, 192.0, 0.0, 0.0, 0.0, 0.0, 0.0, 0.0, 0.0, 0.0, 0.0, 1.717238020158684E9, 0.0, 2024-06-01 03:33:40.158
162.0, 187500.0, -33567.961581702424, 187500.0, 187500.0, 187500.0, 187500.0, 187500.0, -91594.00660920223, 0.018000000000000002, -0.02, 0.978, 192.0, 0.0, 0.0, 0.0, 0.0, 0.0, 0.0, 0.0, 0.0, 0.0, 1.7172380201587E9, 0.0, 2024-06-01 03:33:40.158
163.0, 187500.0, -33584.323058643706, 187500.0, 187500.0, 187500.0, 187500.0, 187500.0, -91596.0182662032, 0.018000000000000002, -0.02, 0.978, 192.0, 0.0, 0.0, 0.0, 0.0, 0.0, 0.0, 0.0, 0.0, 0.0, 1.717238020158716E9, 0.0, 2024-06-01 03:33:40.158
164.0, 187500.0, -33581.372628375604, 187500.0, 187500.0, 187500.0, 187500.0, 187500.0, -91609.98810648777, 0.018000000000000002, -0.02, 0.978, 192.0, 0.0, 0.0, 0.0, 0.0, 0.0, 0.0, 0.0, 0.0, 0.0, 1.7172380201587324E9, 0.0, 2024-06-01 03:33:40.158
165.0, 187500.0, -33566.93340145748, 187500.0, 187500.0, 187500.0, 187500.0, 187500.0, -91607.84233902006, 0.018000000000000002, -0.02, 0.978, 192.0, 0.0, 0.0, 0.0, 0.0, 0.0, 0.0, 0.0, 0.0, 0.0, 1.7172380201587484E9, 0.0, 2024-06-01 03:33:40.158
166.0, 187500.0, -33563.982971189376, 187500.0, 187500.0, 187500.0, 187500.0, 187500.0, -91595.05714119163, 0.018000000000000002, -0.02, 0.978, 192.0, 0.0, 0.0, 0.0, 0.0, 0.0, 0.0, 0.0, 0.0, 0.0, 1.7172380201587644E9, 0.0, 2024-06-01 03:33:40.158
167.0, 187500.0, -33574.13066317209, 187500.0, 187500.0, 187500.0, 187500.0, 187500.0, -91593.58192605758, 0.016, -0.024, 0.982, 192.0, 0.0, 128.0, 255.0, 64.0, 30.0, 176.0, 0.0, 0.0, 0.0, 1.7172380201587899E9, 0.0, 2024-06-01 03:33:40.158
168.0, 187500.0, -33580.29974464175, 187500.0, 187500.0, 187500.0, 187500.0, 187500.0, -91597.60524005954, 0.016, -0.024, 0.982, 192.0, 0.0, 0.0, 0.0, 0.0, 0.0, 0.0, 0.0, 0.0, 0.0, 1.717238020158807E9, 0.0, 2024-06-01 03:33:40.158
169.0, 187500.0, -33569.36974160311, 187500.0, 187500.0, 187500.0, 187500.0, 187500.0, -91603.72961804028, 0.016, -0.024, 0.982, 192.0, 0.0, 0.0, 0.0, 0.0, 0.0, 0.0, 0.0, 0.0, 0.0, 1.7172380201588233E9, 0.0, 2024-06-01 03:33:40.158
170.0, 187500.0, -33559.95965718742, 187500.0, 187500.0, 187500.0, 187500.0, 187500.0, -91591.43615858986, 0.016, -0.024, 0.982, 192.0, 0.0, 0.0, 0.0, 0.0, 0.0, 0.0, 0.0, 0.0, 0.0, 1.7172380201588392E9, 0.0, 2024-06-01 03:33:40.158
171.0, 187500.0, -33567.71571251342, 187500.0, 187500.0, 187500.0, 187500.0, 187500.0, -91576.79576597163, 0.016, -0.024, 0.982, 192.0, 0.0, 0.0, 0.0, 0.0, 0.0, 0.0, 0.0, 0.0, 0.0, 1.7172380201588557E9, 0.0, 2024-06-01 03:33:40.158
172.0, 187500.0, -33574.37653236109, 187500.0, 187500.0, 187500.0, 187500.0, 187500.0, -91585.98233294277, 0.016, -0.024, 0.982, 192.0, 0.0, 0.0, 0.0, 0.0, 0.0, 0.0, 0.0, 0.0, 0.0, 1.7172380201588717E9, 0.0, 2024-06-01 03:33:40.158
173.0, 187500.0, -33561.07724441019, 187500.0, 187500.0, 187500.0, 187500.0, 187500.0, -91593.22429814629, 0.016, -0.024, 0.982, 192.0, 0.0, 0.0, 0.0, 0.0, 0.0, 0.0, 0.0, 0.0, 0.0, 1.7172380201588876E9, 0.0, 2024-06-01 03:33:40.158
174.0, 187500.0, -33552.56122977272, 187500.0, 187500.0, 187500.0, 187500.0, 187500.0, -91593.40311210194, 0.016, -0.024, 0.982, 192.0, 0.0, 0.0, 0.0, 0.0, 0.0, 0.0, 0.0, 0.0, 0.0, 1.717238020158904E9, 0.0, 2024-06-01 03:33:40.158
175.0, 187500.0, -33565.234668878875, 187500.0, 187500.0, 187500.0, 187500.0, 187500.0, -91588.97746669978, 0.016, -0.024, 0.982, 192.0, 0.0, 0.0, 0.0, 0.0, 0.0, 0.0, 0.0, 0.0, 0.0, 1.7172380201589208E9, 0.0, 2024-06-01 03:33:40.158
176.0, 187500.0, -33573.23659339388, 187500.0, 187500.0, 187500.0, 187500.0, 187500.0, -91595.79474875865, 0.016, -0.024, 0.982, 192.0, 0.0, 0.0, 0.0, 0.0, 0.0, 0.0, 0.0, 0.0, 0.0, 1.7172380201589367E9, 0.0, 2024-06-01 03:33:40.158
177.0, 187500.0, -33570.21910789241, 187500.0, 187500.0, 187500.0, 187500.0, 187500.0, -91605.74127504126, 0.018000000000000002, -0.024, 0.992, 192.0, 0.0, 144.0, 255.0, 64.0, 31.0, 0.0, 0.0, 0.0, 0.0, 1.717238020158953E9, 0.0, 2024-06-01 03:33:40.158
178.0, 187500.0, -33564.98879968987, 187500.0, 187500.0, 187500.0, 187500.0, 187500.0, -91604.8248535186, 0.018000000000000002, -0.024, 0.992, 192.0, 0.0, 0.0, 0.0, 0.0, 0.0, 0.0, 0.0, 0.0, 0.0, 1.717238020158976E9, 0.0, 2024-06-01 03:33:40.158
179.0, 187500.0, -33566.084035168176, 187500.0, 187500.0, 187500.0, 187500.0, 187500.0, -91603.41669361791, 0.018000000000000002, -0.024, 0.992, 192.0, 0.0, 0.0, 0.0, 0.0, 0.0, 0.0, 0.0, 0.0, 0.0, 1.717238020159001E9, 0.0, 2024-06-01 03:33:40.159
180.0, 187500.0, -33570.39792184805, 187500.0, 187500.0, 187500.0, 187500.0, 187500.0, -91602.25440290624, 0.018000000000000002, -0.024, 0.992, 192.0, 0.0, 0.0, 0.0, 0.0, 0.0, 0.0, 0.0, 0.0, 0.0, 1.717238020159027E9, 0.0, 2024-06-01 03:33:40.159
181.0, 187500.0, -33566.86634622412, 187500.0, 187500.0, 187500.0, 187500.0, 187500.0, -91607.26119366422, 0.018000000000000002, -0.024, 0.992, 192.0, 0.0, 0.0, 0.0, 0.0, 0.0, 0.0, 0.0, 0.0, 0.0, 1.7172380201590447E9, 0.0, 2024-06-01 03:33:40.159
182.0, 187500.0, -33556.78570947477, 187500.0, 187500.0, 187500.0, 187500.0, 187500.0, -91602.50027209525, 0.018000000000000002, -0.024, 0.992, 192.0, 0.0, 0.0, 0.0, 0.0, 0.0, 0.0, 0.0, 0.0, 0.0, 1.7172380201590612E9, 0.0, 2024-06-01 03:33:40.159
183.0, 187500.0, -33566.88869796857, 187500.0, 187500.0, 187500.0, 187500.0, 187500.0, -91600.8238912611, 0.018000000000000002, -0.024, 0.992, 192.0, 0.0, 0.0, 0.0, 0.0, 0.0, 0.0, 0.0, 0.0, 0.0, 1.717238020159088E9, 0.0, 2024-06-01 03:33:40.159
184.0, 187500.0, -33577.617535307116, 187500.0, 187500.0, 187500.0, 187500.0, 187500.0, -91603.01436221771, 0.018000000000000002, -0.024, 0.992, 192.0, 0.0, 0.0, 0.0, 0.0, 0.0, 0.0, 0.0, 0.0, 0.0, 1.7172380201591113E9, 0.0, 2024-06-01 03:33:40.159
185.0, 187500.0, -33572.52133757131, 187500.0, 187500.0, 187500.0, 187500.0, 187500.0, -91611.19510068836, 0.018000000000000002, -0.024, 0.992, 192.0, 0.0, 0.0, 0.0, 0.0, 0.0, 0.0, 0.0, 0.0, 0.0, 1.7172380201591249E9, 0.0, 2024-06-01 03:33:40.159
186.0, 187500.0, -33555.15403212953, 187500.0, 187500.0, 187500.0, 187500.0, 187500.0, -91601.74031278376, 0.018000000000000002, -0.024, 0.986, 192.0, 0.0, 144.0, 255.0, 64.0, 30.0, 208.0, 0.0, 0.0, 0.0, 1.717238020159138E9, 0.0, 2024-06-01 03:33:40.159
187.0, 187500.0, -33555.69047399646, 187500.0, 187500.0, 187500.0, 187500.0, 187500.0, -91596.26413539221, 0.018000000000000002, -0.024, 0.986, 192.0, 0.0, 0.0, 0.0, 0.0, 0.0, 0.0, 0.0, 0.0, 0.0, 1.7172380201591518E9, 0.0, 2024-06-01 03:33:40.159
188.0, 187500.0, -33567.335732857675, 187500.0, 187500.0, 187500.0, 187500.0, 187500.0, -91597.69464703735, 0.018000000000000002, -0.024, 0.986, 192.0, 0.0, 0.0, 0.0, 0.0, 0.0, 0.0, 0.0, 0.0, 0.0, 1.717238020159165E9, 0.0, 2024-06-01 03:33:40.159
189.0, 187500.0, -33567.91687821351, 187500.0, 187500.0, 187500.0, 187500.0, 187500.0, -91599.3263243826, 0.018000000000000002, -0.024, 0.986, 192.0, 0.0, 0.0, 0.0, 0.0, 0.0, 0.0, 0.0, 0.0, 0.0, 1.7172380201591785E9, 0.0, 2024-06-01 03:33:40.159
190.0, 187500.0, -33557.45626180843, 187500.0, 187500.0, 187500.0, 187500.0, 187500.0, -91604.66839130741, 0.018000000000000002, -0.024, 0.986, 192.0, 0.0, 0.0, 0.0, 0.0, 0.0, 0.0, 0.0, 0.0, 0.0, 1.7172380201592045E9, 0.0, 2024-06-01 03:33:40.159
191.0, 187500.0, -33560.85372696564, 187500.0, 187500.0, 187500.0, 187500.0, 187500.0, -91600.6674290499, 0.018000000000000002, -0.024, 0.986, 192.0, 0.0, 0.0, 0.0, 0.0, 0.0, 0.0, 0.0, 0.0, 0.0, 1.7172380201592255E9, 0.0, 2024-06-01 03:33:40.159
192.0, 187500.0, -33567.35808460213, 187500.0, 187500.0, 187500.0, 187500.0, 187500.0, -91597.69464703735, 0.018000000000000002, -0.024, 0.986, 192.0, 0.0, 0.0, 0.0, 0.0, 0.0, 0.0, 0.0, 0.0, 0.0, 1.7172380201592395E9, 0.0, 2024-06-01 03:33:40.159
193.0, 187500.0, -33566.575773546196, 187500.0, 187500.0, 187500.0, 187500.0, 187500.0, -91607.9764494868, 0.018000000000000002, -0.024, 0.986, 192.0, 0.0, 0.0, 0.0, 0.0, 0.0, 0.0, 0.0, 0.0, 0.0, 1.717238020159253E9, 0.0, 2024-06-01 03:33:40.159
194.0, 187500.0, -33562.239535121866, 187500.0, 187500.0, 187500.0, 187500.0, 187500.0, -91615.97837400179, 0.018000000000000002, -0.024, 0.986, 192.0, 0.0, 0.0, 0.0, 0.0, 0.0, 0.0, 0.0, 0.0, 0.0, 1.7172380201592655E9, 0.0, 2024-06-01 03:33:40.159
195.0, 187500.0, -33558.372683331094, 187500.0, 187500.0, 187500.0, 187500.0, 187500.0, -91608.15526344243, 0.018000000000000002, -0.024, 0.986, 192.0, 0.0, 0.0, 0.0, 0.0, 0.0, 0.0, 0.0, 0.0, 0.0, 1.7172380201592784E9, 0.0, 2024-06-01 03:33:40.159
196.0, 187500.0, -33570.21910789241, 187500.0, 187500.0, 187500.0, 187500.0, 187500.0, -91606.81415877512, 0.024, -0.026000000000000002, 0.984, 192.0, 0.0, 192.0, 255.0, 48.0, 30.0, 192.0, 0.0, 0.0, 0.0, 1.7172380201592915E9, 0.0, 2024-06-01 03:33:40.159
197.0, 187500.0, -33574.26477363882, 187500.0, 187500.0, 187500.0, 187500.0, 187500.0, -91608.87051926501, 0.024, -0.026000000000000002, 0.984, 192.0, 0.0, 0.0, 0.0, 0.0, 0.0, 0.0, 0.0, 0.0, 0.0, 1.7172380201593049E9, 0.0, 2024-06-01 03:33:40.159
198.0, 187500.0, -33560.31728509871, 187500.0, 187500.0, 187500.0, 187500.0, 187500.0, -91612.29033616667, 0.024, -0.026000000000000002, 0.984, 192.0, 0.0, 0.0, 0.0, 0.0, 0.0, 0.0, 0.0, 0.0, 0.0, 1.717238020159328E9, 0.0, 2024-06-01 03:33:40.159
199.0, 187500.0, -33558.819718220206, 187500.0, 187500.0, 187500.0, 187500.0, 187500.0, -91607.55176634215, 0.024, -0.026000000000000002, 0.984, 192.0, 0.0, 0.0, 0.0, 0.0, 0.0, 0.0, 0.0, 0.0, 0.0, 1.717238020159341E9, 0.0, 2024-06-01 03:33:40.159
200.0, 187500.0, -33561.814851977215, 187500.0, 187500.0, 187500.0, 187500.0, 187500.0, -91600.53331858317, 0.024, -0.026000000000000002, 0.984, 192.0, 0.0, 0.0, 0.0, 0.0, 0.0, 0.0, 0.0, 0.0, 0.0, 1.717238020159354E9, 0.0, 2024-06-01 03:33:40.159
201.0, 187500.0, -33563.11125315562, 187500.0, 187500.0, 187500.0, 187500.0, 187500.0, -91599.39337961595, 0.024, -0.026000000000000002, 0.984, 192.0, 0.0, 0.0, 0.0, 0.0, 0.0, 0.0, 0.0, 0.0, 0.0, 1.717238020159367E9, 0.0, 2024-06-01 03:33:40.159
202.0, 187500.0, -33557.59037227516, 187500.0, 187500.0, 187500.0, 187500.0, 187500.0, -91607.95409774233, 0.024, -0.026000000000000002, 0.984, 192.0, 0.0, 0.0, 0.0, 0.0, 0.0, 0.0, 0.0, 0.0, 0.0, 1.71723802015938E9, 0.0, 2024-06-01 03:33:40.159
203.0, 187500.0, -33546.39214830305, 187500.0, 187500.0, 187500.0, 187500.0, 187500.0, -91602.58967907306, 0.024, -0.026000000000000002, 0.984, 192.0, 0.0, 0.0, 0.0, 0.0, 0.0, 0.0, 0.0, 0.0, 0.0, 1.717238020159393E9, 0.0, 2024-06-01 03:33:40.159
204.0, 187500.0, -33547.30856982572, 187500.0, 187500.0, 187500.0, 187500.0, 187500.0, -91592.37493185699, 0.024, -0.026000000000000002, 0.984, 192.0, 0.0, 0.0, 0.0, 0.0, 0.0, 0.0, 0.0, 0.0, 0.0, 1.717238020159406E9, 0.0, 2024-06-01 03:33:40.159
205.0, 187500.0, -33559.04323566476, 187500.0, 187500.0, 187500.0, 187500.0, 187500.0, -91590.89971672294, 0.024, -0.026000000000000002, 0.984, 192.0, 0.0, 0.0, 0.0, 0.0, 0.0, 0.0, 0.0, 0.0, 0.0, 1.7172380201594188E9, 0.0, 2024-06-01 03:33:40.159
206.0, 187500.0, -33555.377549574085, 187500.0, 187500.0, 187500.0, 187500.0, 187500.0, -91590.67619927839, 0.018000000000000002, -0.02, 0.984, 192.0, 0.0, 144.0, 255.0, 96.0, 30.0, 192.0, 0.0, 0.0, 0.0, 1.7172380201594317E9, 0.0, 2024-06-01 03:33:40.159
207.0, 187500.0, -33540.96067440041, 187500.0, 187500.0, 187500.0, 187500.0, 187500.0, -91587.99398994374, 0.018000000000000002, -0.02, 0.984, 192.0, 0.0, 0.0, 0.0, 0.0, 0.0, 0.0, 0.0, 0.0, 0.0, 1.7172380201594453E9, 0.0, 2024-06-01 03:33:40.159
208.0, 187500.0, -33546.30274132523, 187500.0, 187500.0, 187500.0, 187500.0, 187500.0, -91590.45268183383, 0.018000000000000002, -0.02, 0.984, 192.0, 0.0, 0.0, 0.0, 0.0, 0.0, 0.0, 0.0, 0.0, 0.0, 1.7172380201594582E9, 0.0, 2024-06-01 03:33:40.159
209.0, 187500.0, -33555.511660040815, 187500.0, 187500.0, 187500.0, 187500.0, 187500.0, -91594.27483013569, 0.018000000000000002, -0.02, 0.984, 192.0, 0.0, 0.0, 0.0, 0.0, 0.0, 0.0, 0.0, 0.0, 0.0, 1.7172380201594718E9, 0.0, 2024-06-01 03:33:40.159
210.0, 187500.0, -33547.95677041492, 187500.0, 187500.0, 187500.0, 187500.0, 187500.0, -91595.4147691029, 0.018000000000000002, -0.02, 0.984, 192.0, 0.0, 0.0, 0.0, 0.0, 0.0, 0.0, 0.0, 0.0, 0.0, 1.7172380201594849E9, 0.0, 2024-06-01 03:33:40.159
211.0, 187500.0, -33536.02093887579, 187500.0, 187500.0, 187500.0, 187500.0, 187500.0, -91598.38755111546, 0.018000000000000002, -0.02, 0.984, 192.0, 0.0, 0.0, 0.0, 0.0, 0.0, 0.0, 0.0, 0.0, 0.0, 1.7172380201594977E9, 0.0, 2024-06-01 03:33:40.159
212.0, 187500.0, -33533.87517140808, 187500.0, 187500.0, 187500.0, 187500.0, 187500.0, -91589.22333588879, 0.018000000000000002, -0.02, 0.984, 192.0, 0.0, 0.0, 0.0, 0.0, 0.0, 0.0, 0.0, 0.0, 0.0, 1.7172380201595109E9, 0.0, 2024-06-01 03:33:40.159
213.0, 187500.0, -33544.000511646336, 187500.0, 187500.0, 187500.0, 187500.0, 187500.0, -91586.74229225425, 0.018000000000000002, -0.02, 0.984, 192.0, 0.0, 0.0, 0.0, 0.0, 0.0, 0.0, 0.0, 0.0, 0.0, 1.7172380201595314E9, 0.0, 2024-06-01 03:33:40.159
214.0, 187500.0, -33539.55251449973, 187500.0, 187500.0, 187500.0, 187500.0, 187500.0, -91590.5197370672, 0.018000000000000002, -0.02, 0.984, 192.0, 0.0, 0.0, 0.0, 0.0, 0.0, 0.0, 0.0, 0.0, 0.0, 1.7172380201595445E9, 0.0, 2024-06-01 03:33:40.159
215.0, 187500.0, -33529.98596787285, 187500.0, 187500.0, 187500.0, 187500.0, 187500.0, -91590.07270217809, 0.018000000000000002, -0.02, 0.984, 192.0, 0.0, 0.0, 0.0, 0.0, 0.0, 0.0, 0.0, 0.0, 0.0, 1.717238020159557E9, 0.0, 2024-06-01 03:33:40.159
216.0, 187500.0, -33532.28819755175, 187500.0, 187500.0, 187500.0, 187500.0, 187500.0, -91581.35552184052, 0.02, -0.02, 0.98, 192.0, 0.0, 160.0, 255.0, 96.0, 30.0, 160.0, 0.0, 0.0, 0.0, 1.7172380201595705E9, 0.0, 2024-06-01 03:33:40.159
217.0, 187500.0, -33540.04425287774, 187500.0, 187500.0, 187500.0, 187500.0, 187500.0, -91577.10869039402, 0.02, -0.02, 0.98, 192.0, 0.0, 0.0, 0.0, 0.0, 0.0, 0.0, 0.0, 0.0, 0.0, 1.7172380201595838E9, 0.0, 2024-06-01 03:33:40.159
218.0, 187500.0, -33541.742985456345, 187500.0, 187500.0, 187500.0, 187500.0, 187500.0, -91585.42353933139, 0.02, -0.02, 0.98, 192.0, 0.0, 0.0, 0.0, 0.0, 0.0, 0.0, 0.0, 0.0, 0.0, 1.7172380201595972E9, 0.0, 2024-06-01 03:33:40.159
219.0, 187500.0, -33535.529200497775, 187500.0, 187500.0, 187500.0, 187500.0, 187500.0, -91593.35840861303, 0.02, -0.02, 0.98, 192.0, 0.0, 0.0, 0.0, 0.0, 0.0, 0.0, 0.0, 0.0, 0.0, 1.7172380201596103E9, 0.0, 2024-06-01 03:33:40.159
220.0, 187500.0, -33535.12686909758, 187500.0, 187500.0, 187500.0, 187500.0, 187500.0, -91585.49059456475, 0.02, -0.02, 0.98, 192.0, 0.0, 0.0, 0.0, 0.0, 0.0, 0.0, 0.0, 0.0, 0.0, 1.7172380201596231E9, 0.0, 2024-06-01 03:33:40.159
221.0, 187500.0, -33540.714805211406, 187500.0, 187500.0, 187500.0, 187500.0, 187500.0, -91577.68983574986, 0.02, -0.02, 0.98, 192.0, 0.0, 0.0, 0.0, 0.0, 0.0, 0.0, 0.0, 0.0, 0.0, 1.717238020159636E9, 0.0, 2024-06-01 03:33:40.159
222.0, 187500.0, -33535.462145264406, 187500.0, 187500.0, 187500.0, 187500.0, 187500.0, -91577.28750434966, 0.02, -0.02, 0.98, 192.0, 0.0, 0.0, 0.0, 0.0, 0.0, 0.0, 0.0, 0.0, 0.0, 1.7172380201596491E9, 0.0, 2024-06-01 03:33:40.159
223.0, 187500.0, -33530.50005799533, 187500.0, 187500.0, 187500.0, 187500.0, 187500.0, -91588.03869343265, 0.02, -0.02, 0.98, 192.0, 0.0, 0.0, 0.0, 0.0, 0.0, 0.0, 0.0, 0.0, 0.0, 1.717238020159662E9, 0.0, 2024-06-01 03:33:40.159
224.0, 187500.0, -33522.63224394706, 187500.0, 187500.0, 187500.0, 187500.0, 187500.0, -91586.33996085405, 0.02, -0.02, 0.98, 192.0, 0.0, 0.0, 0.0, 0.0, 0.0, 0.0, 0.0, 0.0, 0.0, 1.717238020159675E9, 0.0, 2024-06-01 03:33:40.159
225.0, 187500.0, -33520.48647647935, 187500.0, 187500.0, 187500.0, 187500.0, 187500.0, -91576.19226887135, 0.02, -0.02, 0.98, 192.0, 0.0, 0.0, 0.0, 0.0, 0.0, 0.0, 0.0, 0.0, 0.0, 1.717238020159688E9, 0.0, 2024-06-01 03:33:40.159
226.0, 187500.0, -33526.20852305991, 187500.0, 187500.0, 187500.0, 187500.0, 187500.0, -91571.99014091375, 0.018000000000000002, -0.022, 0.984, 192.0, 0.0, 144.0, 255.0, 80.0, 30.0, 192.0, 0.0, 0.0, 0.0, 1.7172380201597009E9, 0.0, 2024-06-01 03:33:40.159
227.0, 187500.0, -33520.86645613509, 187500.0, 187500.0, 187500.0, 187500.0, 187500.0, -91580.30498985112, 0.018000000000000002, -0.022, 0.984, 192.0, 0.0, 0.0, 0.0, 0.0, 0.0, 0.0, 0.0, 0.0, 0.0, 1.7172380201597142E9, 0.0, 2024-06-01 03:33:40.159
228.0, 187500.0, -33513.356269998105, 187500.0, 187500.0, 187500.0, 187500.0, 187500.0, -91582.56251604111, 0.018000000000000002, -0.022, 0.984, 192.0, 0.0, 0.0, 0.0, 0.0, 0.0, 0.0, 0.0, 0.0, 0.0, 1.7172380201597347E9, 0.0, 2024-06-01 03:33:40.159
229.0, 187500.0, -33523.52631372527, 187500.0, 187500.0, 187500.0, 187500.0, 187500.0, -91582.94249569684, 0.018000000000000002, -0.022, 0.984, 192.0, 0.0, 0.0, 0.0, 0.0, 0.0, 0.0, 0.0, 0.0, 0.0, 1.7172380201597478E9, 0.0, 2024-06-01 03:33:40.159
230.0, 187500.0, -33529.42717426147, 187500.0, 187500.0, 187500.0, 187500.0, 187500.0, -91582.56251604111, 0.018000000000000002, -0.022, 0.984, 192.0, 0.0, 0.0, 0.0, 0.0, 0.0, 0.0, 0.0, 0.0, 0.0, 1.7172380201597607E9, 0.0, 2024-06-01 03:33:40.159
231.0, 187500.0, -33519.54770321223, 187500.0, 187500.0, 187500.0, 187500.0, 187500.0, -91590.34092311155, 0.018000000000000002, -0.022, 0.984, 192.0, 0.0, 0.0, 0.0, 0.0, 0.0, 0.0, 0.0, 0.0, 0.0, 1.7172380201597738E9, 0.0, 2024-06-01 03:33:40.159
232.0, 187500.0, -33503.38739197104, 187500.0, 187500.0, 187500.0, 187500.0, 187500.0, -91587.32343761009, 0.018000000000000002, -0.022, 0.984, 192.0, 0.0, 0.0, 0.0, 0.0, 0.0, 0.0, 0.0, 0.0, 0.0, 1.7172380201597867E9, 0.0, 2024-06-01 03:33:40.159
233.0, 187500.0, -33503.45444720441, 187500.0, 187500.0, 187500.0, 187500.0, 187500.0, -91573.73357698126, 0.018000000000000002, -0.022, 0.984, 192.0, 0.0, 0.0, 0.0, 0.0, 0.0, 0.0, 0.0, 0.0, 0.0, 1.7172380201597996E9, 0.0, 2024-06-01 03:33:40.159
234.0, 187500.0, -33511.83635137515, 187500.0, 187500.0, 187500.0, 187500.0, 187500.0, -91562.87062917599, 0.018000000000000002, -0.022, 0.984, 192.0, 0.0, 0.0, 0.0, 0.0, 0.0, 0.0, 0.0, 0.0, 0.0, 1.7172380201598127E9, 0.0, 2024-06-01 03:33:40.159
235.0, 187500.0, -33513.91506360949, 187500.0, 187500.0, 187500.0, 187500.0, 187500.0, -91575.3652543265, 0.018000000000000002, -0.022, 0.984, 192.0, 0.0, 0.0, 0.0, 0.0, 0.0, 0.0, 0.0, 0.0, 0.0, 1.7172380201598253E9, 0.0, 2024-06-01 03:33:40.159
236.0, 187500.0, -33503.63326116005, 187500.0, 187500.0, 187500.0, 187500.0, 187500.0, -91581.48963230726, 0.018000000000000002, -0.028, 0.984, 192.0, 0.0, 144.0, 255.0, 32.0, 30.0, 192.0, 0.0, 0.0, 0.0, 1.7172380201598384E9, 0.0, 2024-06-01 03:33:40.159
237.0, 187500.0, -33510.76346764129, 187500.0, 187500.0, 187500.0, 187500.0, 187500.0, -91578.20392587232, 0.018000000000000002, -0.028, 0.984, 192.0, 0.0, 0.0, 0.0, 0.0, 0.0, 0.0, 0.0, 0.0, 0.0, 1.7172380201598518E9, 0.0, 2024-06-01 03:33:40.159
238.0, 187500.0, -33521.961691613404, 187500.0, 187500.0, 187500.0, 187500.0, 187500.0, -91568.70443447882, 0.018000000000000002, -0.028, 0.984, 192.0, 0.0, 0.0, 0.0, 0.0, 0.0, 0.0, 0.0, 0.0, 0.0, 1.717238020159865E9, 0.0, 2024-06-01 03:33:40.159
239.0, 187500.0, -33518.40776424501, 187500.0, 187500.0, 187500.0, 187500.0, 187500.0, -91569.8667251905, 0.018000000000000002, -0.028, 0.984, 192.0, 0.0, 0.0, 0.0, 0.0, 0.0, 0.0, 0.0, 0.0, 0.0, 1.7172380201598775E9, 0.0, 2024-06-01 03:33:40.159
240.0, 187500.0, -33507.32129899517, 187500.0, 187500.0, 187500.0, 187500.0, 187500.0, -91577.42161481638, 0.018000000000000002, -0.028, 0.984, 192.0, 0.0, 0.0, 0.0, 0.0, 0.0, 0.0, 0.0, 0.0, 0.0, 1.7172380201598907E9, 0.0, 2024-06-01 03:33:40.159
241.0, 187500.0, -33504.348516982616, 187500.0, 187500.0, 187500.0, 187500.0, 187500.0, -91579.74619623974, 0.018000000000000002, -0.028, 0.984, 192.0, 0.0, 0.0, 0.0, 0.0, 0.0, 0.0, 0.0, 0.0, 0.0, 1.7172380206393824E9, 0.0, 2024-06-01 03:33:40.639
242.0, 187500.0, -33510.87522636357, 187500.0, 187500.0, 187500.0, 187500.0, 187500.0, -91578.24862936123, 0.018000000000000002, -0.028, 0.984, 192.0, 0.0, 0.0, 0.0, 0.0, 0.0, 0.0, 0.0, 0.0, 0.0, 1.7172380206394296E9, 0.0, 2024-06-01 03:33:40.639
243.0, 187500.0, -33511.43401997495, 187500.0, 187500.0, 187500.0, 187500.0, 187500.0, -91582.85308871903, 0.018000000000000002, -0.028, 0.984, 192.0, 0.0, 0.0, 0.0, 0.0, 0.0, 0.0, 0.0, 0.0, 0.0, 1.71723802063952E9, 0.0, 2024-06-01 03:33:40.639
244.0, 187500.0, -33501.1075140366, 187500.0, 187500.0, 187500.0, 187500.0, 187500.0, -91585.02120793119, 0.018000000000000002, -0.028, 0.984, 192.0, 0.0, 0.0, 0.0, 0.0, 0.0, 0.0, 0.0, 0.0, 0.0, 1.7172380206395488E9, 0.0, 2024-06-01 03:33:40.639
245.0, 187500.0, -33499.69935413592, 187500.0, 187500.0, 187500.0, 187500.0, 187500.0, -91577.35455958302, 0.018000000000000002, -0.028, 0.984, 192.0, 0.0, 0.0, 0.0, 0.0, 0.0, 0.0, 0.0, 0.0, 0.0, 1.7172380206395743E9, 0.0, 2024-06-01 03:33:40.639
246.0, 187500.0, -33517.04430783323, 187500.0, 187500.0, 187500.0, 187500.0, 187500.0, -91572.6159897585, 0.018000000000000002, -0.026000000000000002, 0.984, 192.0, 0.0, 144.0, 255.0, 48.0, 30.0, 192.0, 0.0, 0.0, 0.0, 1.7172380206395996E9, 0.0, 2024-06-01 03:33:40.639
247.0, 187500.0, -33520.44177299044, 187500.0, 187500.0, 187500.0, 187500.0, 187500.0, -91570.22435310177, 0.018000000000000002, -0.026000000000000002, 0.984, 192.0, 0.0, 0.0, 0.0, 0.0, 0.0, 0.0, 0.0, 0.0, 0.0, 1.717238020639629E9, 0.0, 2024-06-01 03:33:40.639
248.0, 187500.0, -33513.5574356982, 187500.0, 187500.0, 187500.0, 187500.0, 187500.0, -91579.65678926192, 0.018000000000000002, -0.026000000000000002, 0.984, 192.0, 0.0, 0.0, 0.0, 0.0, 0.0, 0.0, 0.0, 0.0, 0.0, 1.7172380206396427E9, 0.0, 2024-06-01 03:33:40.639
249.0, 187500.0, -33506.87426410607, 187500.0, 187500.0, 187500.0, 187500.0, 187500.0, -91577.57807702757, 0.018000000000000002, -0.026000000000000002, 0.984, 192.0, 0.0, 0.0, 0.0, 0.0, 0.0, 0.0, 0.0, 0.0, 0.0, 1.717238020639656E9, 0.0, 2024-06-01 03:33:40.639
250.0, 187500.0, -33509.15414204051, 187500.0, 187500.0, 187500.0, 187500.0, 187500.0, -91569.10676587901, 0.018000000000000002, -0.026000000000000002, 0.984, 192.0, 0.0, 0.0, 0.0, 0.0, 0.0, 0.0, 0.0, 0.0, 0.0, 1.7172380206396697E9, 0.0, 2024-06-01 03:33:40.639
251.0, 187500.0, -33511.99281358634, 187500.0, 187500.0, 187500.0, 187500.0, 187500.0, -91572.70539673632, 0.018000000000000002, -0.026000000000000002, 0.984, 192.0, 0.0, 0.0, 0.0, 0.0, 0.0, 0.0, 0.0, 0.0, 0.0, 1.7172380206396823E9, 0.0, 2024-06-01 03:33:40.639
252.0, 187500.0, -33503.96853732688, 187500.0, 187500.0, 187500.0, 187500.0, 187500.0, -91576.81811771609, 0.018000000000000002, -0.026000000000000002, 0.984, 192.0, 0.0, 0.0, 0.0, 0.0, 0.0, 0.0, 0.0, 0.0, 0.0, 1.7172380206396956E9, 0.0, 2024-06-01 03:33:40.639
253.0, 187500.0, -33496.77127561227, 187500.0, 187500.0, 187500.0, 187500.0, 187500.0, -91578.76271948371, 0.018000000000000002, -0.026000000000000002, 0.984, 192.0, 0.0, 0.0, 0.0, 0.0, 0.0, 0.0, 0.0, 0.0, 0.0, 1.7172380206397085E9, 0.0, 2024-06-01 03:33:40.639
254.0, 187500.0, -33500.861644847595, 187500.0, 187500.0, 187500.0, 187500.0, 187500.0, -91570.20200135732, 0.018000000000000002, -0.026000000000000002, 0.984, 192.0, 0.0, 0.0, 0.0, 0.0, 0.0, 0.0, 0.0, 0.0, 0.0, 1.7172380206397212E9, 0.0, 2024-06-01 03:33:40.639
255.0, 187500.0, -33510.852874619115, 187500.0, 187500.0, 187500.0, 187500.0, 187500.0, -91564.6587687324, 0.018000000000000002, -0.026000000000000002, 0.984, 192.0, 0.0, 0.0, 0.0, 0.0, 0.0, 0.0, 0.0, 0.0, 0.0, 1.7172380206397343E9, 0.0, 2024-06-01 03:33:40.639
0.0, 187500.0, -33506.85191236161, 187500.0, 187500.0, 187500.0, 187500.0, 187500.0, -91568.97265541228, 0.016, -0.022, 0.986, 192.0, 0.0, 128.0, 255.0, 80.0, 30.0, 208.0, 0.0, 0.0, 0.0, 1.7172380206397471E9, 0.0, 2024-06-01 03:33:40.639
1.0, 187500.0, -33492.52444416576, 187500.0, 187500.0, 187500.0, 187500.0, 187500.0, -91566.04457688864, 0.016, -0.022, 0.986, 192.0, 0.0, 0.0, 0.0, 0.0, 0.0, 0.0, 0.0, 0.0, 0.0, 1.717238020639761E9, 0.0, 2024-06-01 03:33:40.639
2.0, 187500.0, -33495.318412222674, 187500.0, 187500.0, 187500.0, 187500.0, 187500.0, -91565.08345187706, 0.016, -0.022, 0.986, 192.0, 0.0, 0.0, 0.0, 0.0, 0.0, 0.0, 0.0, 0.0, 0.0, 1.7172380206397989E9, 0.0, 2024-06-01 03:33:40.639
3.0, 187500.0, -33502.06863904818, 187500.0, 187500.0, 187500.0, 187500.0, 187500.0, -91561.95420765331, 0.016, -0.022, 0.986, 192.0, 0.0, 0.0, 0.0, 0.0, 0.0, 0.0, 0.0, 0.0, 0.0, 1.7172380206398125E9, 0.0, 2024-06-01 03:33:40.639
4.0, 187500.0, -33498.11238027959, 187500.0, 187500.0, 187500.0, 187500.0, 187500.0, -91571.65486474692, 0.016, -0.022, 0.986, 192.0, 0.0, 0.0, 0.0, 0.0, 0.0, 0.0, 0.0, 0.0, 0.0, 1.7172380206398256E9, 0.0, 2024-06-01 03:33:40.639
5.0, 187500.0, -33483.06965626117, 187500.0, 187500.0, 187500.0, 187500.0, 187500.0, -91571.20782985781, 0.016, -0.022, 0.986, 192.0, 0.0, 0.0, 0.0, 0.0, 0.0, 0.0, 0.0, 0.0, 0.0, 1.7172380206398387E9, 0.0, 2024-06-01 03:33:40.639
6.0, 187500.0, -33486.98121154084, 187500.0, 187500.0, 187500.0, 187500.0, 187500.0, -91566.67042573339, 0.016, -0.022, 0.986, 192.0, 0.0, 0.0, 0.0, 0.0, 0.0, 0.0, 0.0, 0.0, 0.0, 1.717238020639852E9, 0.0, 2024-06-01 03:33:40.639
7.0, 187500.0, -33500.369906469576, 187500.0, 187500.0, 187500.0, 187500.0, 187500.0, -91565.61989374399, 0.016, -0.022, 0.986, 192.0, 0.0, 0.0, 0.0, 0.0, 0.0, 0.0, 0.0, 0.0, 0.0, 1.717238020639865E9, 0.0, 2024-06-01 03:33:40.639
8.0, 187500.0, -33501.889825092534, 187500.0, 187500.0, 187500.0, 187500.0, 187500.0, -91568.19034435635, 0.016, -0.022, 0.986, 192.0, 0.0, 0.0, 0.0, 0.0, 0.0, 0.0, 0.0, 0.0, 0.0, 1.717238020639878E9, 0.0, 2024-06-01 03:33:40.639
9.0, 187500.0, -33490.82571158716, 187500.0, 187500.0, 187500.0, 187500.0, 187500.0, -91570.38081531296, 0.016, -0.022, 0.986, 192.0, 0.0, 0.0, 0.0, 0.0, 0.0, 0.0, 0.0, 0.0, 0.0, 1.717238020639891E9, 0.0, 2024-06-01 03:33:40.639
10.0, 187500.0, -33484.94720279541, 187500.0, 187500.0, 187500.0, 187500.0, 187500.0, -91561.73069020876, 0.016, -0.018000000000000002, 0.986, 192.0, 0.0, 128.0, 255.0, 112.0, 30.0, 208.0, 0.0, 0.0, 0.0, 1.717238020639904E9, 0.0, 2024-06-01 03:33:40.639
11.0, 187500.0, -33492.83736858814, 187500.0, 187500.0, 187500.0, 187500.0, 187500.0, -91555.13692559444, 0.016, -0.018000000000000002, 0.986, 192.0, 0.0, 0.0, 0.0, 0.0, 0.0, 0.0, 0.0, 0.0, 0.0, 1.7172380206399176E9, 0.0, 2024-06-01 03:33:40.639
12.0, 187500.0, -33497.9559180684, 187500.0, 187500.0, 187500.0, 187500.0, 187500.0, -91563.9658646543, 0.016, -0.018000000000000002, 0.986, 192.0, 0.0, 0.0, 0.0, 0.0, 0.0, 0.0, 0.0, 0.0, 0.0, 1.7172380206399305E9, 0.0, 2024-06-01 03:33:40.639
13.0, 187500.0, -33489.35049645311, 187500.0, 187500.0, 187500.0, 187500.0, 187500.0, -91571.67721649137, 0.016, -0.018000000000000002, 0.986, 192.0, 0.0, 0.0, 0.0, 0.0, 0.0, 0.0, 0.0, 0.0, 0.0, 1.7172380206399436E9, 0.0, 2024-06-01 03:33:40.639
14.0, 187500.0, -33485.72951385135, 187500.0, 187500.0, 187500.0, 187500.0, 187500.0, -91572.95126592532, 0.016, -0.018000000000000002, 0.986, 192.0, 0.0, 0.0, 0.0, 0.0, 0.0, 0.0, 0.0, 0.0, 0.0, 1.7172380206399565E9, 0.0, 2024-06-01 03:33:40.639
15.0, 187500.0, -33487.27178421876, 187500.0, 187500.0, 187500.0, 187500.0, 187500.0, -91563.45177453182, 0.016, -0.018000000000000002, 0.986, 192.0, 0.0, 0.0, 0.0, 0.0, 0.0, 0.0, 0.0, 0.0, 0.0, 1.7172380206399693E9, 0.0, 2024-06-01 03:33:40.639
16.0, 187500.0, -33487.33883945213, 187500.0, 187500.0, 187500.0, 187500.0, 187500.0, -91565.73165246626, 0.016, -0.018000000000000002, 0.986, 192.0, 0.0, 0.0, 0.0, 0.0, 0.0, 0.0, 0.0, 0.0, 0.0, 1.7172380206399825E9, 0.0, 2024-06-01 03:33:40.639
17.0, 187500.0, -33481.61679287157, 187500.0, 187500.0, 187500.0, 187500.0, 187500.0, -91571.3195885801, 0.016, -0.018000000000000002, 0.986, 192.0, 0.0, 0.0, 0.0, 0.0, 0.0, 0.0, 0.0, 0.0, 0.0, 1.7172380206400173E9, 0.0, 2024-06-01 03:33:40.640
18.0, 187500.0, -33479.605135870595, 187500.0, 187500.0, 187500.0, 187500.0, 187500.0, -91567.34097806705, 0.016, -0.018000000000000002, 0.986, 192.0, 0.0, 0.0, 0.0, 0.0, 0.0, 0.0, 0.0, 0.0, 0.0, 1.7172380206400304E9, 0.0, 2024-06-01 03:33:40.640
19.0, 187500.0, -33483.404932428, 187500.0, 187500.0, 187500.0, 187500.0, 187500.0, -91561.4624692753, 0.016, -0.018000000000000002, 0.986, 192.0, 0.0, 0.0, 0.0, 0.0, 0.0, 0.0, 0.0, 0.0, 0.0, 1.7172380206400433E9, 0.0, 2024-06-01 03:33:40.640
20.0, 187500.0, -33490.28926972023, 187500.0, 187500.0, 187500.0, 187500.0, 187500.0, -91557.23798957324, 0.014, -0.018000000000000002, 0.984, 192.0, 0.0, 112.0, 255.0, 112.0, 30.0, 192.0, 0.0, 0.0, 0.0, 1.7172380206400564E9, 0.0, 2024-06-01 03:33:40.640
21.0, 187500.0, -33486.08714176263, 187500.0, 187500.0, 187500.0, 187500.0, 187500.0, -91556.12040235048, 0.014, -0.018000000000000002, 0.984, 192.0, 0.0, 0.0, 0.0, 0.0, 0.0, 0.0, 0.0, 0.0, 0.0, 1.71723802064007E9, 0.0, 2024-06-01 03:33:40.640
22.0, 187500.0, -33478.48754864783, 187500.0, 187500.0, 187500.0, 187500.0, 187500.0, -91554.24285581624, 0.014, -0.018000000000000002, 0.984, 192.0, 0.0, 0.0, 0.0, 0.0, 0.0, 0.0, 0.0, 0.0, 0.0, 1.7172380206400833E9, 0.0, 2024-06-01 03:33:40.640
23.0, 187500.0, -33480.72272309336, 187500.0, 187500.0, 187500.0, 187500.0, 187500.0, -91549.63839645844, 0.014, -0.018000000000000002, 0.984, 192.0, 0.0, 0.0, 0.0, 0.0, 0.0, 0.0, 0.0, 0.0, 0.0, 1.717238020640096E9, 0.0, 2024-06-01 03:33:40.640
24.0, 187500.0, -33496.63716514554, 187500.0, 187500.0, 187500.0, 187500.0, 187500.0, -91563.29531232064, 0.014, -0.018000000000000002, 0.984, 192.0, 0.0, 0.0, 0.0, 0.0, 0.0, 0.0, 0.0, 0.0, 0.0, 1.7172380206401088E9, 0.0, 2024-06-01 03:33:40.640
25.0, 187500.0, -33489.57401389766, 187500.0, 187500.0, 187500.0, 187500.0, 187500.0, -91567.47508853377, 0.014, -0.018000000000000002, 0.984, 192.0, 0.0, 0.0, 0.0, 0.0, 0.0, 0.0, 0.0, 0.0, 0.0, 1.7172380206401217E9, 0.0, 2024-06-01 03:33:40.640
26.0, 187500.0, -33478.64401085902, 187500.0, 187500.0, 187500.0, 187500.0, 187500.0, -91564.68112047686, 0.014, -0.018000000000000002, 0.984, 192.0, 0.0, 0.0, 0.0, 0.0, 0.0, 0.0, 0.0, 0.0, 0.0, 1.7172380206401348E9, 0.0, 2024-06-01 03:33:40.640
27.0, 187500.0, -33481.214461471376, 187500.0, 187500.0, 187500.0, 187500.0, 187500.0, -91569.03971064565, 0.014, -0.018000000000000002, 0.984, 192.0, 0.0, 0.0, 0.0, 0.0, 0.0, 0.0, 0.0, 0.0, 0.0, 1.717238020640148E9, 0.0, 2024-06-01 03:33:40.640
28.0, 187500.0, -33487.89763306351, 187500.0, 187500.0, 187500.0, 187500.0, 187500.0, -91569.93378042386, 0.014, -0.018000000000000002, 0.984, 192.0, 0.0, 0.0, 0.0, 0.0, 0.0, 0.0, 0.0, 0.0, 0.0, 1.7172380206401615E9, 0.0, 2024-06-01 03:33:40.640
29.0, 187500.0, -33486.42241792946, 187500.0, 187500.0, 187500.0, 187500.0, 187500.0, -91573.44300430335, 0.014, -0.018000000000000002, 0.984, 192.0, 0.0, 0.0, 0.0, 0.0, 0.0, 0.0, 0.0, 0.0, 0.0, 1.7172380206401746E9, 0.0, 2024-06-01 03:33:40.640
30.0, 187500.0, -33477.1017404916, 187500.0, 187500.0, 187500.0, 187500.0, 187500.0, -91572.10189963602, 0.016, -0.02, 0.982, 192.0, 0.0, 128.0, 255.0, 96.0, 30.0, 176.0, 0.0, 0.0, 0.0, 1.7172380206401875E9, 0.0, 2024-06-01 03:33:40.640
31.0, 187500.0, -33480.72272309336, 187500.0, 187500.0, 187500.0, 187500.0, 187500.0, -91570.98431241326, 0.016, -0.02, 0.982, 192.0, 0.0, 0.0, 0.0, 0.0, 0.0, 0.0, 0.0, 0.0, 0.0, 1.717238020640201E9, 0.0, 2024-06-01 03:33:40.640
32.0, 187500.0, -33488.76935109727, 187500.0, 187500.0, 187500.0, 187500.0, 187500.0, -91561.6636349754, 0.016, -0.02, 0.982, 192.0, 0.0, 0.0, 0.0, 0.0, 0.0, 0.0, 0.0, 0.0, 0.0, 1.717238020640214E9, 0.0, 2024-06-01 03:33:40.640
33.0, 187500.0, -33493.41851394397, 187500.0, 187500.0, 187500.0, 187500.0, 187500.0, -91566.40220479992, 0.016, -0.02, 0.982, 192.0, 0.0, 0.0, 0.0, 0.0, 0.0, 0.0, 0.0, 0.0, 0.0, 1.7172380206402607E9, 0.0, 2024-06-01 03:33:40.640
34.0, 187500.0, -33476.63235385804, 187500.0, 187500.0, 187500.0, 187500.0, 187500.0, -91566.08928037755, 0.016, -0.02, 0.982, 192.0, 0.0, 0.0, 0.0, 0.0, 0.0, 0.0, 0.0, 0.0, 0.0, 1.7172380206402748E9, 0.0, 2024-06-01 03:33:40.640
35.0, 187500.0, -33469.256278187786, 187500.0, 187500.0, 187500.0, 187500.0, 187500.0, -91560.32253030808, 0.016, -0.02, 0.982, 192.0, 0.0, 0.0, 0.0, 0.0, 0.0, 0.0, 0.0, 0.0, 0.0, 1.7172380206402876E9, 0.0, 2024-06-01 03:33:40.640
36.0, 187500.0, -33477.19114746942, 187500.0, 187500.0, 187500.0, 187500.0, 187500.0, -91557.10387910651, 0.016, -0.02, 0.982, 192.0, 0.0, 0.0, 0.0, 0.0, 0.0, 0.0, 0.0, 0.0, 0.0, 1.7172380206403005E9, 0.0, 2024-06-01 03:33:40.640
37.0, 187500.0, -33483.82961557265, 187500.0, 187500.0, 187500.0, 187500.0, 187500.0, -91561.64128323094, 0.016, -0.02, 0.982, 192.0, 0.0, 0.0, 0.0, 0.0, 0.0, 0.0, 0.0, 0.0, 0.0, 1.7172380206403143E9, 0.0, 2024-06-01 03:33:40.640
38.0, 187500.0, -33477.928755036446, 187500.0, 187500.0, 187500.0, 187500.0, 187500.0, -91568.30210307862, 0.016, -0.02, 0.982, 192.0, 0.0, 0.0, 0.0, 0.0, 0.0, 0.0, 0.0, 0.0, 0.0, 1.7172380206403275E9, 0.0, 2024-06-01 03:33:40.640
39.0, 187500.0, -33466.305847919684, 187500.0, 187500.0, 187500.0, 187500.0, 187500.0, -91560.88132391946, 0.016, -0.02, 0.982, 192.0, 0.0, 0.0, 0.0, 0.0, 0.0, 0.0, 0.0, 0.0, 0.0, 1.7172380206403408E9, 0.0, 2024-06-01 03:33:40.640
40.0, 187500.0, -33470.373865410555, 187500.0, 187500.0, 187500.0, 187500.0, 187500.0, -91555.24868431673, 0.018000000000000002, -0.028, 0.99, 192.0, 0.0, 144.0, 255.0, 32.0, 30.0, 240.0, 0.0, 0.0, 0.0, 1.7172380206403537E9, 0.0, 2024-06-01 03:33:40.640
41.0, 187500.0, -33480.7003713489, 187500.0, 187500.0, 187500.0, 187500.0, 187500.0, -91562.78122219816, 0.018000000000000002, -0.028, 0.99, 192.0, 0.0, 0.0, 0.0, 0.0, 0.0, 0.0, 0.0, 0.0, 0.0, 1.7172380206403673E9, 0.0, 2024-06-01 03:33:40.640
42.0, 187500.0, -33471.2008799554, 187500.0, 187500.0, 187500.0, 187500.0, 187500.0, -91567.3633298115, 0.018000000000000002, -0.028, 0.99, 192.0, 0.0, 0.0, 0.0, 0.0, 0.0, 0.0, 0.0, 0.0, 0.0, 1.717238020640381E9, 0.0, 2024-06-01 03:33:40.640
43.0, 187500.0, -33464.96474325237, 187500.0, 187500.0, 187500.0, 187500.0, 187500.0, -91558.7132047073, 0.018000000000000002, -0.028, 0.99, 192.0, 0.0, 0.0, 0.0, 0.0, 0.0, 0.0, 0.0, 0.0, 0.0, 1.7172380206403944E9, 0.0, 2024-06-01 03:33:40.640
44.0, 187500.0, -33470.82090029966, 187500.0, 187500.0, 187500.0, 187500.0, 187500.0, -91553.84052441604, 0.018000000000000002, -0.028, 0.99, 192.0, 0.0, 0.0, 0.0, 0.0, 0.0, 0.0, 0.0, 0.0, 0.0, 1.7172380206404076E9, 0.0, 2024-06-01 03:33:40.640
45.0, 187500.0, -33479.4039701705, 187500.0, 187500.0, 187500.0, 187500.0, 187500.0, -91564.07762337656, 0.018000000000000002, -0.028, 0.99, 192.0, 0.0, 0.0, 0.0, 0.0, 0.0, 0.0, 0.0, 0.0, 0.0, 1.7172380206404204E9, 0.0, 2024-06-01 03:33:40.640
46.0, 187500.0, -33471.29028693322, 187500.0, 187500.0, 187500.0, 187500.0, 187500.0, -91571.23018160227, 0.018000000000000002, -0.028, 0.99, 192.0, 0.0, 0.0, 0.0, 0.0, 0.0, 0.0, 0.0, 0.0, 0.0, 1.7172380206404333E9, 0.0, 2024-06-01 03:33:40.640
47.0, 187500.0, -33459.265048416266, 187500.0, 187500.0, 187500.0, 187500.0, 187500.0, -91565.73165246626, 0.018000000000000002, -0.028, 0.99, 192.0, 0.0, 0.0, 0.0, 0.0, 0.0, 0.0, 0.0, 0.0, 0.0, 1.7172380206404464E9, 0.0, 2024-06-01 03:33:40.640
48.0, 187500.0, -33464.0483217297, 187500.0, 187500.0, 187500.0, 187500.0, 187500.0, -91556.16510583939, 0.018000000000000002, -0.028, 0.99, 192.0, 0.0, 0.0, 0.0, 0.0, 0.0, 0.0, 0.0, 0.0, 0.0, 1.7172380206404693E9, 0.0, 2024-06-01 03:33:40.640
49.0, 187500.0, -33474.352475923595, 187500.0, 187500.0, 187500.0, 187500.0, 187500.0, -91555.09222210554, 0.018000000000000002, -0.028, 0.99, 192.0, 0.0, 0.0, 0.0, 0.0, 0.0, 0.0, 0.0, 0.0, 0.0, 1.7172380206404824E9, 0.0, 2024-06-01 03:33:40.640
50.0, 187500.0, -33470.82090029966, 187500.0, 187500.0, 187500.0, 187500.0, 187500.0, -91567.40803330041, 0.012, -0.03, 0.988, 192.0, 0.0, 96.0, 255.0, 16.0, 30.0, 224.0, 0.0, 0.0, 0.0, 1.7172380206404953E9, 0.0, 2024-06-01 03:33:40.640
51.0, 187500.0, -33454.43707161392, 187500.0, 187500.0, 187500.0, 187500.0, 187500.0, -91558.19911458483, 0.012, -0.03, 0.988, 192.0, 0.0, 0.0, 0.0, 0.0, 0.0, 0.0, 0.0, 0.0, 0.0, 1.7172380206405091E9, 0.0, 2024-06-01 03:33:40.640
52.0, 187500.0, -33460.919077505954, 187500.0, 187500.0, 187500.0, 187500.0, 187500.0, -91552.34295753753, 0.012, -0.03, 0.988, 192.0, 0.0, 0.0, 0.0, 0.0, 0.0, 0.0, 0.0, 0.0, 0.0, 1.7172380206405225E9, 0.0, 2024-06-01 03:33:40.640
53.0, 187500.0, -33465.903516519495, 187500.0, 187500.0, 187500.0, 187500.0, 187500.0, -91550.64422495893, 0.012, -0.03, 0.988, 192.0, 0.0, 0.0, 0.0, 0.0, 0.0, 0.0, 0.0, 0.0, 0.0, 1.7172380206405354E9, 0.0, 2024-06-01 03:33:40.640
54.0, 187500.0, -33463.69069381842, 187500.0, 187500.0, 187500.0, 187500.0, 187500.0, -91558.60144598501, 0.012, -0.03, 0.988, 192.0, 0.0, 0.0, 0.0, 0.0, 0.0, 0.0, 0.0, 0.0, 0.0, 1.7172380206405485E9, 0.0, 2024-06-01 03:33:40.640
55.0, 187500.0, -33455.420548369955, 187500.0, 187500.0, 187500.0, 187500.0, 187500.0, -91557.7073762068, 0.012, -0.03, 0.988, 192.0, 0.0, 0.0, 0.0, 0.0, 0.0, 0.0, 0.0, 0.0, 0.0, 1.717238020640561E9, 0.0, 2024-06-01 03:33:40.640
56.0, 187500.0, -33450.83844075661, 187500.0, 187500.0, 187500.0, 187500.0, 187500.0, -91555.00281512771, 0.012, -0.03, 0.988, 192.0, 0.0, 0.0, 0.0, 0.0, 0.0, 0.0, 0.0, 0.0, 0.0, 1.7172380206405742E9, 0.0, 2024-06-01 03:33:40.640
57.0, 187500.0, -33459.600324583094, 187500.0, 187500.0, 187500.0, 187500.0, 187500.0, -91555.29338780564, 0.012, -0.03, 0.988, 192.0, 0.0, 0.0, 0.0, 0.0, 0.0, 0.0, 0.0, 0.0, 0.0, 1.717238020640587E9, 0.0, 2024-06-01 03:33:40.640
58.0, 187500.0, -33464.0483217297, 187500.0, 187500.0, 187500.0, 187500.0, 187500.0, -91562.28948382015, 0.012, -0.03, 0.988, 192.0, 0.0, 0.0, 0.0, 0.0, 0.0, 0.0, 0.0, 0.0, 0.0, 1.7172380206406E9, 0.0, 2024-06-01 03:33:40.640
59.0, 187500.0, -33455.822879770145, 187500.0, 187500.0, 187500.0, 187500.0, 187500.0, -91557.2603413177, 0.012, -0.03, 0.988, 192.0, 0.0, 0.0, 0.0, 0.0, 0.0, 0.0, 0.0, 0.0, 0.0, 1.7172380206406133E9, 0.0, 2024-06-01 03:33:40.640
60.0, 187500.0, -33450.83844075661, 187500.0, 187500.0, 187500.0, 187500.0, 187500.0, -91544.78806791164, 0.018000000000000002, -0.024, 0.988, 192.0, 0.0, 144.0, 255.0, 64.0, 30.0, 224.0, 0.0, 0.0, 0.0, 1.717238020640626E9, 0.0, 2024-06-01 03:33:40.640
61.0, 187500.0, -33457.81218502667, 187500.0, 187500.0, 187500.0, 187500.0, 187500.0, -91540.6082916985, 0.018000000000000002, -0.024, 0.988, 192.0, 0.0, 0.0, 0.0, 0.0, 0.0, 0.0, 0.0, 0.0, 0.0, 1.7172380206406393E9, 0.0, 2024-06-01 03:33:40.640
62.0, 187500.0, -33462.193126939914, 187500.0, 187500.0, 187500.0, 187500.0, 187500.0, -91550.21954181428, 0.018000000000000002, -0.024, 0.988, 192.0, 0.0, 0.0, 0.0, 0.0, 0.0, 0.0, 0.0, 0.0, 0.0, 1.717238020640653E9, 0.0, 2024-06-01 03:33:40.640
63.0, 187500.0, -33457.90159200449, 187500.0, 187500.0, 187500.0, 187500.0, 187500.0, -91561.88715241995, 0.018000000000000002, -0.024, 0.988, 192.0, 0.0, 0.0, 0.0, 0.0, 0.0, 0.0, 0.0, 0.0, 0.0, 1.7172380206406736E9, 0.0, 2024-06-01 03:33:40.640
64.0, 187500.0, -33448.357397122076, 187500.0, 187500.0, 187500.0, 187500.0, 187500.0, -91551.67240520388, 0.018000000000000002, -0.024, 0.988, 192.0, 0.0, 0.0, 0.0, 0.0, 0.0, 0.0, 0.0, 0.0, 0.0, 1.7172380206406868E9, 0.0, 2024-06-01 03:33:40.640
65.0, 187500.0, -33451.28547564572, 187500.0, 187500.0, 187500.0, 187500.0, 187500.0, -91541.21178879878, 0.018000000000000002, -0.024, 0.988, 192.0, 0.0, 0.0, 0.0, 0.0, 0.0, 0.0, 0.0, 0.0, 0.0, 1.7172380206406996E9, 0.0, 2024-06-01 03:33:40.640
66.0, 187500.0, -33455.62171407005, 187500.0, 187500.0, 187500.0, 187500.0, 187500.0, -91549.10195459152, 0.018000000000000002, -0.024, 0.988, 192.0, 0.0, 0.0, 0.0, 0.0, 0.0, 0.0, 0.0, 0.0, 0.0, 1.7172380206407125E9, 0.0, 2024-06-01 03:33:40.640
67.0, 187500.0, -33445.4963738318, 187500.0, 187500.0, 187500.0, 187500.0, 187500.0, -91549.07960284706, 0.018000000000000002, -0.024, 0.988, 192.0, 0.0, 0.0, 0.0, 0.0, 0.0, 0.0, 0.0, 0.0, 0.0, 1.7172380206407254E9, 0.0, 2024-06-01 03:33:40.640
68.0, 187500.0, -33437.785021994714, 187500.0, 187500.0, 187500.0, 187500.0, 187500.0, -91542.82111439957, 0.018000000000000002, -0.024, 0.988, 192.0, 0.0, 0.0, 0.0, 0.0, 0.0, 0.0, 0.0, 0.0, 0.0, 1.7172380206407385E9, 0.0, 2024-06-01 03:33:40.640
69.0, 187500.0, -33443.95410346438, 187500.0, 187500.0, 187500.0, 187500.0, 187500.0, -91540.83180914306, 0.02, -0.022, 0.982, 192.0, 0.0, 160.0, 255.0, 80.0, 30.0, 176.0, 0.0, 0.0, 0.0, 1.7172380206407511E9, 0.0, 2024-06-01 03:33:40.640
70.0, 187500.0, -33455.80052802569, 187500.0, 187500.0, 187500.0, 187500.0, 187500.0, -91542.12821032146, 0.02, -0.022, 0.982, 192.0, 0.0, 0.0, 0.0, 0.0, 0.0, 0.0, 0.0, 0.0, 0.0, 1.7172380206407647E9, 0.0, 2024-06-01 03:33:40.640
71.0, 187500.0, -33448.849135500095, 187500.0, 187500.0, 187500.0, 187500.0, 187500.0, -91546.95618712381, 0.02, -0.022, 0.982, 192.0, 0.0, 0.0, 0.0, 0.0, 0.0, 0.0, 0.0, 0.0, 0.0, 1.7172380206407776E9, 0.0, 2024-06-01 03:33:40.640
72.0, 187500.0, -33440.71310051836, 187500.0, 187500.0, 187500.0, 187500.0, 187500.0, -91546.53150397916, 0.02, -0.022, 0.982, 192.0, 0.0, 0.0, 0.0, 0.0, 0.0, 0.0, 0.0, 0.0, 0.0, 1.7172380206407907E9, 0.0, 2024-06-01 03:33:40.640
73.0, 187500.0, -33446.41279535447, 187500.0, 187500.0, 187500.0, 187500.0, 187500.0, -91541.56941671007, 0.02, -0.022, 0.982, 192.0, 0.0, 0.0, 0.0, 0.0, 0.0, 0.0, 0.0, 0.0, 0.0, 1.7172380206408036E9, 0.0, 2024-06-01 03:33:40.640
74.0, 187500.0, -33449.83261225613, 187500.0, 187500.0, 187500.0, 187500.0, 187500.0, -91544.00575685571, 0.02, -0.022, 0.982, 192.0, 0.0, 0.0, 0.0, 0.0, 0.0, 0.0, 0.0, 0.0, 0.0, 1.7172380206408167E9, 0.0, 2024-06-01 03:33:40.640
75.0, 187500.0, -33445.9434087209, 187500.0, 187500.0, 187500.0, 187500.0, 187500.0, -91556.99212038424, 0.02, -0.022, 0.982, 192.0, 0.0, 0.0, 0.0, 0.0, 0.0, 0.0, 0.0, 0.0, 0.0, 1.7172380206408296E9, 0.0, 2024-06-01 03:33:40.640
76.0, 187500.0, -33450.74903377879, 187500.0, 187500.0, 187500.0, 187500.0, 187500.0, -91572.92891418087, 0.02, -0.022, 0.982, 192.0, 0.0, 0.0, 0.0, 0.0, 0.0, 0.0, 0.0, 0.0, 0.0, 1.717238020640843E9, 0.0, 2024-06-01 03:33:40.640
77.0, 187500.0, -33450.07848144513, 187500.0, 187500.0, 187500.0, 187500.0, 187500.0, -91565.23991408825, 0.02, -0.022, 0.982, 192.0, 0.0, 0.0, 0.0, 0.0, 0.0, 0.0, 0.0, 0.0, 0.0, 1.7172380206408558E9, 0.0, 2024-06-01 03:33:40.640
78.0, 187500.0, -33450.27964714523, 187500.0, 187500.0, 187500.0, 187500.0, 187500.0, -91551.98532962624, 0.02, -0.022, 0.982, 192.0, 0.0, 0.0, 0.0, 0.0, 0.0, 0.0, 0.0, 0.0, 0.0, 1.7172380206408763E9, 0.0, 2024-06-01 03:33:40.640
79.0, 187500.0, -33450.167888422955, 187500.0, 187500.0, 187500.0, 187500.0, 187500.0, -91559.51786750769, 0.02, -0.024, 0.98, 192.0, 0.0, 160.0, 255.0, 64.0, 30.0, 160.0, 0.0, 0.0, 0.0, 1.7172380206408896E9, 0.0, 2024-06-01 03:33:40.640
80.0, 187500.0, -33436.51097256076, 187500.0, 187500.0, 187500.0, 187500.0, 187500.0, -91563.94351290984, 0.02, -0.024, 0.98, 192.0, 0.0, 0.0, 0.0, 0.0, 0.0, 0.0, 0.0, 0.0, 0.0, 1.7172380206409032E9, 0.0, 2024-06-01 03:33:40.640
81.0, 187500.0, -33445.18344940942, 187500.0, 187500.0, 187500.0, 187500.0, 187500.0, -91560.47899251926, 0.02, -0.024, 0.98, 192.0, 0.0, 0.0, 0.0, 0.0, 0.0, 0.0, 0.0, 0.0, 0.0, 1.717238020640916E9, 0.0, 2024-06-01 03:33:40.640
82.0, 187500.0, -33455.44290011441, 187500.0, 187500.0, 187500.0, 187500.0, 187500.0, -91552.52177149318, 0.02, -0.024, 0.98, 192.0, 0.0, 0.0, 0.0, 0.0, 0.0, 0.0, 0.0, 0.0, 0.0, 1.717238020640929E9, 0.0, 2024-06-01 03:33:40.640
83.0, 187500.0, -33444.490545331304, 187500.0, 187500.0, 187500.0, 187500.0, 187500.0, -91553.08056510455, 0.02, -0.024, 0.98, 192.0, 0.0, 0.0, 0.0, 0.0, 0.0, 0.0, 0.0, 0.0, 0.0, 1.717238020640942E9, 0.0, 2024-06-01 03:33:40.640
84.0, 187500.0, -33435.81806848265, 187500.0, 187500.0, 187500.0, 187500.0, 187500.0, -91561.55187625311, 0.02, -0.024, 0.98, 192.0, 0.0, 0.0, 0.0, 0.0, 0.0, 0.0, 0.0, 0.0, 0.0, 1.7172380206409547E9, 0.0, 2024-06-01 03:33:40.640
85.0, 187500.0, -33423.70342298787, 187500.0, 187500.0, 187500.0, 187500.0, 187500.0, -91540.09420157602, 0.02, -0.024, 0.98, 192.0, 0.0, 0.0, 0.0, 0.0, 0.0, 0.0, 0.0, 0.0, 0.0, 1.7172380206409676E9, 0.0, 2024-06-01 03:33:40.640
86.0, 187500.0, -33434.05228067068, 187500.0, 187500.0, 187500.0, 187500.0, 187500.0, -91530.34884099351, 0.02, -0.024, 0.98, 192.0, 0.0, 0.0, 0.0, 0.0, 0.0, 0.0, 0.0, 0.0, 0.0, 1.7172380206409805E9, 0.0, 2024-06-01 03:33:40.640
87.0, 187500.0, -33444.6917110314, 187500.0, 187500.0, 187500.0, 187500.0, 187500.0, -91545.88330338994, 0.02, -0.024, 0.98, 192.0, 0.0, 0.0, 0.0, 0.0, 0.0, 0.0, 0.0, 0.0, 0.0, 1.7172380206409936E9, 0.0, 2024-06-01 03:33:40.640
88.0, 187500.0, -33433.04645217019, 187500.0, 187500.0, 187500.0, 187500.0, 187500.0, -91552.09708834853, 0.02, -0.024, 0.98, 192.0, 0.0, 0.0, 0.0, 0.0, 0.0, 0.0, 0.0, 0.0, 0.0, 1.7172380206410065E9, 0.0, 2024-06-01 03:33:40.641
89.0, 187500.0, -33425.223341610836, 187500.0, 187500.0, 187500.0, 187500.0, 187500.0, -91543.71518417778, 0.018000000000000002, -0.026000000000000002, 0.976, 192.0, 0.0, 144.0, 255.0, 48.0, 30.0, 128.0, 0.0, 0.0, 0.0, 1.717238020641019E9, 0.0, 2024-06-01 03:33:40.641
90.0, 187500.0, -33430.92303644693, 187500.0, 187500.0, 187500.0, 187500.0, 187500.0, -91542.17291381037, 0.018000000000000002, -0.026000000000000002, 0.976, 192.0, 0.0, 0.0, 0.0, 0.0, 0.0, 0.0, 0.0, 0.0, 0.0, 1.7172380206410327E9, 0.0, 2024-06-01 03:33:40.641
91.0, 187500.0, -33436.84624872759, 187500.0, 187500.0, 187500.0, 187500.0, 187500.0, -91542.46348648828, 0.018000000000000002, -0.026000000000000002, 0.976, 192.0, 0.0, 0.0, 0.0, 0.0, 0.0, 0.0, 0.0, 0.0, 0.0, 1.717238020641046E9, 0.0, 2024-06-01 03:33:40.641
92.0, 187500.0, -33427.90555094547, 187500.0, 187500.0, 187500.0, 187500.0, 187500.0, -91548.43140225785, 0.018000000000000002, -0.026000000000000002, 0.976, 192.0, 0.0, 0.0, 0.0, 0.0, 0.0, 0.0, 0.0, 0.0, 0.0, 1.7172380206410587E9, 0.0, 2024-06-01 03:33:40.641
93.0, 187500.0, -33415.54503626168, 187500.0, 187500.0, 187500.0, 187500.0, 187500.0, -91541.54706496562, 0.018000000000000002, -0.026000000000000002, 0.976, 192.0, 0.0, 0.0, 0.0, 0.0, 0.0, 0.0, 0.0, 0.0, 0.0, 1.7172380206410794E9, 0.0, 2024-06-01 03:33:40.641
94.0, 187500.0, -33424.28456834371, 187500.0, 187500.0, 187500.0, 187500.0, 187500.0, -91537.59080619703, 0.018000000000000002, -0.026000000000000002, 0.976, 192.0, 0.0, 0.0, 0.0, 0.0, 0.0, 0.0, 0.0, 0.0, 0.0, 1.7172380206410923E9, 0.0, 2024-06-01 03:33:40.641
95.0, 187500.0, -33442.03185344122, 187500.0, 187500.0, 187500.0, 187500.0, 187500.0, -91547.64909120192, 0.018000000000000002, -0.026000000000000002, 0.976, 192.0, 0.0, 0.0, 0.0, 0.0, 0.0, 0.0, 0.0, 0.0, 0.0, 1.7172380206411057E9, 0.0, 2024-06-01 03:33:40.641
96.0, 187500.0, -33430.90068470248, 187500.0, 187500.0, 187500.0, 187500.0, 187500.0, -91549.2584168027, 0.018000000000000002, -0.026000000000000002, 0.976, 192.0, 0.0, 0.0, 0.0, 0.0, 0.0, 0.0, 0.0, 0.0, 0.0, 1.7172380206411183E9, 0.0, 2024-06-01 03:33:40.641
97.0, 187500.0, -33414.11452461655, 187500.0, 187500.0, 187500.0, 187500.0, 187500.0, -91542.12821032146, 0.018000000000000002, -0.026000000000000002, 0.976, 192.0, 0.0, 0.0, 0.0, 0.0, 0.0, 0.0, 0.0, 0.0, 0.0, 1.7172380206411314E9, 0.0, 2024-06-01 03:33:40.641
98.0, 187500.0, -33412.52755076022, 187500.0, 187500.0, 187500.0, 187500.0, 187500.0, -91527.30900374759, 0.018000000000000002, -0.026000000000000002, 0.976, 192.0, 0.0, 0.0, 0.0, 0.0, 0.0, 0.0, 0.0, 0.0, 0.0, 1.7172380206411445E9, 0.0, 2024-06-01 03:33:40.641
99.0, 187500.0, -33418.89779792998, 187500.0, 187500.0, 187500.0, 187500.0, 187500.0, -91522.21280601178, 0.018000000000000002, -0.024, 0.98, 192.0, 0.0, 144.0, 255.0, 64.0, 30.0, 160.0, 0.0, 0.0, 0.0, 1.7172380206411572E9, 0.0, 2024-06-01 03:33:40.641
100.0, 187500.0, -33423.90458868797, 187500.0, 187500.0, 187500.0, 187500.0, 187500.0, -91534.99800384021, 0.018000000000000002, -0.024, 0.98, 192.0, 0.0, 0.0, 0.0, 0.0, 0.0, 0.0, 0.0, 0.0, 0.0, 1.7172380206411707E9, 0.0, 2024-06-01 03:33:40.641
101.0, 187500.0, -33413.04164088269, 187500.0, 187500.0, 187500.0, 187500.0, 187500.0, -91538.37311725297, 0.018000000000000002, -0.024, 0.98, 192.0, 0.0, 0.0, 0.0, 0.0, 0.0, 0.0, 0.0, 0.0, 0.0, 1.717238020641184E9, 0.0, 2024-06-01 03:33:40.641
102.0, 187500.0, -33408.012498380245, 187500.0, 187500.0, 187500.0, 187500.0, 187500.0, -91525.54321593561, 0.018000000000000002, -0.024, 0.98, 192.0, 0.0, 0.0, 0.0, 0.0, 0.0, 0.0, 0.0, 0.0, 0.0, 1.7172380206411967E9, 0.0, 2024-06-01 03:33:40.641
103.0, 187500.0, -33421.13297237551, 187500.0, 187500.0, 187500.0, 187500.0, 187500.0, -91522.7045443898, 0.018000000000000002, -0.024, 0.98, 192.0, 0.0, 0.0, 0.0, 0.0, 0.0, 0.0, 0.0, 0.0, 0.0, 1.71723802064121E9, 0.0, 2024-06-01 03:33:40.641
104.0, 187500.0, -33421.781172964715, 187500.0, 187500.0, 187500.0, 187500.0, 187500.0, -91534.72978290675, 0.018000000000000002, -0.024, 0.98, 192.0, 0.0, 0.0, 0.0, 0.0, 0.0, 0.0, 0.0, 0.0, 0.0, 1.7172380206412227E9, 0.0, 2024-06-01 03:33:40.641
105.0, 187500.0, -33414.718021716835, 187500.0, 187500.0, 187500.0, 187500.0, 187500.0, -91537.43434398585, 0.018000000000000002, -0.024, 0.98, 192.0, 0.0, 0.0, 0.0, 0.0, 0.0, 0.0, 0.0, 0.0, 0.0, 1.7172380211190696E9, 0.0, 2024-06-01 03:33:41.119
106.0, 187500.0, -33412.50519901576, 187500.0, 187500.0, 187500.0, 187500.0, 187500.0, -91533.29927126161, 0.018000000000000002, -0.024, 0.98, 192.0, 0.0, 0.0, 0.0, 0.0, 0.0, 0.0, 0.0, 0.0, 0.0, 1.7172380211191206E9, 0.0, 2024-06-01 03:33:41.119
107.0, 187500.0, -33423.03287065421, 187500.0, 187500.0, 187500.0, 187500.0, 187500.0, -91534.79683814012, 0.018000000000000002, -0.024, 0.98, 192.0, 0.0, 0.0, 0.0, 0.0, 0.0, 0.0, 0.0, 0.0, 0.0, 1.7172380211191497E9, 0.0, 2024-06-01 03:33:41.119
108.0, 187500.0, -33426.89972244498, 187500.0, 187500.0, 187500.0, 187500.0, 187500.0, -91545.19039931183, 0.018000000000000002, -0.024, 0.98, 192.0, 0.0, 0.0, 0.0, 0.0, 0.0, 0.0, 0.0, 0.0, 0.0, 1.7172380211191995E9, 0.0, 2024-06-01 03:33:41.119
109.0, 187500.0, -33413.734544960804, 187500.0, 187500.0, 187500.0, 187500.0, 187500.0, -91547.93966387984, 0.016, -0.026000000000000002, 0.98, 192.0, 0.0, 128.0, 255.0, 48.0, 30.0, 160.0, 0.0, 0.0, 0.0, 1.7172380211192288E9, 0.0, 2024-06-01 03:33:41.119
110.0, 187500.0, -33410.89587341498, 187500.0, 187500.0, 187500.0, 187500.0, 187500.0, -91538.12724806396, 0.016, -0.026000000000000002, 0.98, 192.0, 0.0, 0.0, 0.0, 0.0, 0.0, 0.0, 0.0, 0.0, 0.0, 1.7172380211192582E9, 0.0, 2024-06-01 03:33:41.119
111.0, 187500.0, -33414.42744903892, 187500.0, 187500.0, 187500.0, 187500.0, 187500.0, -91525.74438163571, 0.016, -0.026000000000000002, 0.98, 192.0, 0.0, 0.0, 0.0, 0.0, 0.0, 0.0, 0.0, 0.0, 0.0, 1.7172380211192837E9, 0.0, 2024-06-01 03:33:41.119
112.0, 187500.0, -33416.260292084255, 187500.0, 187500.0, 187500.0, 187500.0, 187500.0, -91525.27499500215, 0.016, -0.026000000000000002, 0.98, 192.0, 0.0, 0.0, 0.0, 0.0, 0.0, 0.0, 0.0, 0.0, 0.0, 1.7172380211193087E9, 0.0, 2024-06-01 03:33:41.119
113.0, 187500.0, -33406.38082103501, 187500.0, 187500.0, 187500.0, 187500.0, 187500.0, -91527.3537072365, 0.016, -0.026000000000000002, 0.98, 192.0, 0.0, 0.0, 0.0, 0.0, 0.0, 0.0, 0.0, 0.0, 0.0, 1.717238021119322E9, 0.0, 2024-06-01 03:33:41.119
114.0, 187500.0, -33400.681126198906, 187500.0, 187500.0, 187500.0, 187500.0, 187500.0, -91531.08644856054, 0.016, -0.026000000000000002, 0.98, 192.0, 0.0, 0.0, 0.0, 0.0, 0.0, 0.0, 0.0, 0.0, 0.0, 1.7172380211193345E9, 0.0, 2024-06-01 03:33:41.119
115.0, 187500.0, -33408.72775420282, 187500.0, 187500.0, 187500.0, 187500.0, 187500.0, -91527.46546595878, 0.016, -0.026000000000000002, 0.98, 192.0, 0.0, 0.0, 0.0, 0.0, 0.0, 0.0, 0.0, 0.0, 0.0, 1.7172380211194897E9, 0.0, 2024-06-01 03:33:41.119
116.0, 187500.0, -33418.920149674435, 187500.0, 187500.0, 187500.0, 187500.0, 187500.0, -91533.6568991729, 0.016, -0.026000000000000002, 0.98, 192.0, 0.0, 0.0, 0.0, 0.0, 0.0, 0.0, 0.0, 0.0, 0.0, 1.717238021119508E9, 0.0, 2024-06-01 03:33:41.119
117.0, 187500.0, -33413.19810309388, 187500.0, 187500.0, 187500.0, 187500.0, 187500.0, -91547.42557375737, 0.016, -0.026000000000000002, 0.98, 192.0, 0.0, 0.0, 0.0, 0.0, 0.0, 0.0, 0.0, 0.0, 0.0, 1.717238021119521E9, 0.0, 2024-06-01 03:33:41.119
118.0, 187500.0, -33400.815236665636, 187500.0, 187500.0, 187500.0, 187500.0, 187500.0, -91543.91634987788, 0.016, -0.026000000000000002, 0.98, 192.0, 0.0, 0.0, 0.0, 0.0, 0.0, 0.0, 0.0, 0.0, 0.0, 1.7172380211195335E9, 0.0, 2024-06-01 03:33:41.119
119.0, 187500.0, -33408.504236758265, 187500.0, 187500.0, 187500.0, 187500.0, 187500.0, -91531.82405612756, 0.02, -0.026000000000000002, 0.974, 192.0, 0.0, 160.0, 255.0, 48.0, 30.0, 112.0, 0.0, 0.0, 0.0, 1.7172380211195462E9, 0.0, 2024-06-01 03:33:41.119
120.0, 187500.0, -33414.9862426503, 187500.0, 187500.0, 187500.0, 187500.0, 187500.0, -91527.26430025868, 0.02, -0.026000000000000002, 0.974, 192.0, 0.0, 0.0, 0.0, 0.0, 0.0, 0.0, 0.0, 0.0, 0.0, 1.7172380211195602E9, 0.0, 2024-06-01 03:33:41.119
121.0, 187500.0, -33406.134951846, 187500.0, 187500.0, 187500.0, 187500.0, 187500.0, -91530.21473052679, 0.02, -0.026000000000000002, 0.974, 192.0, 0.0, 0.0, 0.0, 0.0, 0.0, 0.0, 0.0, 0.0, 0.0, 1.7172380211195729E9, 0.0, 2024-06-01 03:33:41.119
122.0, 187500.0, -33399.049448853664, 187500.0, 187500.0, 187500.0, 187500.0, 187500.0, -91528.11366654799, 0.02, -0.026000000000000002, 0.974, 192.0, 0.0, 0.0, 0.0, 0.0, 0.0, 0.0, 0.0, 0.0, 0.0, 1.7172380211195855E9, 0.0, 2024-06-01 03:33:41.119
123.0, 187500.0, -33399.36237327604, 187500.0, 187500.0, 187500.0, 187500.0, 187500.0, -91521.92223333385, 0.02, -0.026000000000000002, 0.974, 192.0, 0.0, 0.0, 0.0, 0.0, 0.0, 0.0, 0.0, 0.0, 0.0, 1.717238021119598E9, 0.0, 2024-06-01 03:33:41.119
124.0, 187500.0, -33402.782190177706, 187500.0, 187500.0, 187500.0, 187500.0, 187500.0, -91524.82796011305, 0.02, -0.026000000000000002, 0.974, 192.0, 0.0, 0.0, 0.0, 0.0, 0.0, 0.0, 0.0, 0.0, 0.0, 1.7172380211196291E9, 0.0, 2024-06-01 03:33:41.119
125.0, 187500.0, -33403.385687277994, 187500.0, 187500.0, 187500.0, 187500.0, 187500.0, -91536.2049980408, 0.02, -0.026000000000000002, 0.974, 192.0, 0.0, 0.0, 0.0, 0.0, 0.0, 0.0, 0.0, 0.0, 0.0, 1.7172380211196425E9, 0.0, 2024-06-01 03:33:41.119
126.0, 187500.0, -33395.96490811883, 187500.0, 187500.0, 187500.0, 187500.0, 187500.0, -91539.84833238702, 0.02, -0.026000000000000002, 0.974, 192.0, 0.0, 0.0, 0.0, 0.0, 0.0, 0.0, 0.0, 0.0, 0.0, 1.7172380211196551E9, 0.0, 2024-06-01 03:33:41.119
127.0, 187500.0, -33392.81331215064, 187500.0, 187500.0, 187500.0, 187500.0, 187500.0, -91525.9008438469, 0.02, -0.026000000000000002, 0.974, 192.0, 0.0, 0.0, 0.0, 0.0, 0.0, 0.0, 0.0, 0.0, 0.0, 1.7172380211196678E9, 0.0, 2024-06-01 03:33:41.119
128.0, 187500.0, -33404.54797798967, 187500.0, 187500.0, 187500.0, 187500.0, 187500.0, -91521.2963844891, 0.02, -0.026000000000000002, 0.974, 192.0, 0.0, 0.0, 0.0, 0.0, 0.0, 0.0, 0.0, 0.0, 0.0, 1.71723802111968E9, 0.0, 2024-06-01 03:33:41.119
129.0, 187500.0, -33410.94057690389, 187500.0, 187500.0, 187500.0, 187500.0, 187500.0, -91538.12724806396, 0.022, -0.02, 0.982, 192.0, 0.0, 176.0, 255.0, 96.0, 30.0, 176.0, 0.0, 0.0, 0.0, 1.7172380211196926E9, 0.0, 2024-06-01 03:33:41.119
130.0, 187500.0, -33397.35071627506, 187500.0, 187500.0, 187500.0, 187500.0, 187500.0, -91543.06698358858, 0.022, -0.02, 0.982, 192.0, 0.0, 0.0, 0.0, 0.0, 0.0, 0.0, 0.0, 0.0, 0.0, 1.7172380211197057E9, 0.0, 2024-06-01 03:33:41.119
131.0, 187500.0, -33388.588832448586, 187500.0, 187500.0, 187500.0, 187500.0, 187500.0, -91529.54417819311, 0.022, -0.02, 0.982, 192.0, 0.0, 0.0, 0.0, 0.0, 0.0, 0.0, 0.0, 0.0, 0.0, 1.7172380211197178E9, 0.0, 2024-06-01 03:33:41.119
132.0, 187500.0, -33403.51979774473, 187500.0, 187500.0, 187500.0, 187500.0, 187500.0, -91522.07869554505, 0.022, -0.02, 0.982, 192.0, 0.0, 0.0, 0.0, 0.0, 0.0, 0.0, 0.0, 0.0, 0.0, 1.7172380211197305E9, 0.0, 2024-06-01 03:33:41.119
133.0, 187500.0, -33401.865768655036, 187500.0, 187500.0, 187500.0, 187500.0, 187500.0, -91523.77742812365, 0.022, -0.02, 0.982, 192.0, 0.0, 0.0, 0.0, 0.0, 0.0, 0.0, 0.0, 0.0, 0.0, 1.7172380211197429E9, 0.0, 2024-06-01 03:33:41.119
134.0, 187500.0, -33395.763742418734, 187500.0, 187500.0, 187500.0, 187500.0, 187500.0, -91541.39060275443, 0.022, -0.02, 0.982, 192.0, 0.0, 0.0, 0.0, 0.0, 0.0, 0.0, 0.0, 0.0, 0.0, 1.7172380211197548E9, 0.0, 2024-06-01 03:33:41.119
135.0, 187500.0, -33390.08639932709, 187500.0, 187500.0, 187500.0, 187500.0, 187500.0, -91528.82892237055, 0.022, -0.02, 0.982, 192.0, 0.0, 0.0, 0.0, 0.0, 0.0, 0.0, 0.0, 0.0, 0.0, 1.7172380211197672E9, 0.0, 2024-06-01 03:33:41.119
136.0, 187500.0, -33392.25451853925, 187500.0, 187500.0, 187500.0, 187500.0, 187500.0, -91507.68417211583, 0.022, -0.02, 0.982, 192.0, 0.0, 0.0, 0.0, 0.0, 0.0, 0.0, 0.0, 0.0, 0.0, 1.7172380211197796E9, 0.0, 2024-06-01 03:33:41.119
137.0, 187500.0, -33400.56936747663, 187500.0, 187500.0, 187500.0, 187500.0, 187500.0, -91520.82699785555, 0.022, -0.02, 0.982, 192.0, 0.0, 0.0, 0.0, 0.0, 0.0, 0.0, 0.0, 0.0, 0.0, 1.717238021119792E9, 0.0, 2024-06-01 03:33:41.119
138.0, 187500.0, -33389.16997780442, 187500.0, 187500.0, 187500.0, 187500.0, 187500.0, -91537.07671607456, 0.022, -0.02, 0.982, 192.0, 0.0, 0.0, 0.0, 0.0, 0.0, 0.0, 0.0, 0.0, 0.0, 1.7172380211198041E9, 0.0, 2024-06-01 03:33:41.119
139.0, 187500.0, -33377.05533230965, 187500.0, 187500.0, 187500.0, 187500.0, 187500.0, -91528.04661131461, 0.022, -0.022, 0.98, 192.0, 0.0, 176.0, 255.0, 80.0, 30.0, 160.0, 0.0, 0.0, 0.0, 1.7172380211198273E9, 0.0, 2024-06-01 03:33:41.119
140.0, 187500.0, -33386.10778881404, 187500.0, 187500.0, 187500.0, 187500.0, 187500.0, -91515.17200650836, 0.022, -0.022, 0.98, 192.0, 0.0, 0.0, 0.0, 0.0, 0.0, 0.0, 0.0, 0.0, 0.0, 1.7172380211198401E9, 0.0, 2024-06-01 03:33:41.119
141.0, 187500.0, -33389.46055048234, 187500.0, 187500.0, 187500.0, 187500.0, 187500.0, -91518.99415481022, 0.022, -0.022, 0.98, 192.0, 0.0, 0.0, 0.0, 0.0, 0.0, 0.0, 0.0, 0.0, 0.0, 1.7172380211198525E9, 0.0, 2024-06-01 03:33:41.119
142.0, 187500.0, -33384.453759724354, 187500.0, 187500.0, 187500.0, 187500.0, 187500.0, -91533.29927126161, 0.022, -0.022, 0.98, 192.0, 0.0, 0.0, 0.0, 0.0, 0.0, 0.0, 0.0, 0.0, 0.0, 1.717238021119865E9, 0.0, 2024-06-01 03:33:41.119
143.0, 187500.0, -33380.29633525566, 187500.0, 187500.0, 187500.0, 187500.0, 187500.0, -91534.0592305731, 0.022, -0.022, 0.98, 192.0, 0.0, 0.0, 0.0, 0.0, 0.0, 0.0, 0.0, 0.0, 0.0, 1.717238021119877E9, 0.0, 2024-06-01 03:33:41.119
144.0, 187500.0, -33382.46445446783, 187500.0, 187500.0, 187500.0, 187500.0, 187500.0, -91519.73176237724, 0.022, -0.022, 0.98, 192.0, 0.0, 0.0, 0.0, 0.0, 0.0, 0.0, 0.0, 0.0, 0.0, 1.7172380211198895E9, 0.0, 2024-06-01 03:33:41.119
145.0, 187500.0, -33394.82496915162, 187500.0, 187500.0, 187500.0, 187500.0, 187500.0, -91520.87170134445, 0.022, -0.022, 0.98, 192.0, 0.0, 0.0, 0.0, 0.0, 0.0, 0.0, 0.0, 0.0, 0.0, 1.7172380211199017E9, 0.0, 2024-06-01 03:33:41.119
146.0, 187500.0, -33394.310879029144, 187500.0, 187500.0, 187500.0, 187500.0, 187500.0, -91532.94164335032, 0.022, -0.022, 0.98, 192.0, 0.0, 0.0, 0.0, 0.0, 0.0, 0.0, 0.0, 0.0, 0.0, 1.7172380211199138E9, 0.0, 2024-06-01 03:33:41.119
147.0, 187500.0, -33386.10778881404, 187500.0, 187500.0, 187500.0, 187500.0, 187500.0, -91530.77352413816, 0.022, -0.022, 0.98, 192.0, 0.0, 0.0, 0.0, 0.0, 0.0, 0.0, 0.0, 0.0, 0.0, 1.717238021119926E9, 0.0, 2024-06-01 03:33:41.119
148.0, 187500.0, -33387.33713475909, 187500.0, 187500.0, 187500.0, 187500.0, 187500.0, -91520.13409377744, 0.022, -0.022, 0.98, 192.0, 0.0, 0.0, 0.0, 0.0, 0.0, 0.0, 0.0, 0.0, 0.0, 1.717238021119938E9, 0.0, 2024-06-01 03:33:41.119
149.0, 187500.0, -33397.01544010823, 187500.0, 187500.0, 187500.0, 187500.0, 187500.0, -91518.52476817665, 0.02, -0.022, 0.978, 192.0, 0.0, 160.0, 255.0, 80.0, 30.0, 144.0, 0.0, 0.0, 0.0, 1.7172380211199503E9, 0.0, 2024-06-01 03:33:41.119
150.0, 187500.0, -33397.14955057497, 187500.0, 187500.0, 187500.0, 187500.0, 187500.0, -91533.83571312854, 0.02, -0.022, 0.978, 192.0, 0.0, 0.0, 0.0, 0.0, 0.0, 0.0, 0.0, 0.0, 0.0, 1.7172380211199632E9, 0.0, 2024-06-01 03:33:41.119
151.0, 187500.0, -33387.247727781265, 187500.0, 187500.0, 187500.0, 187500.0, 187500.0, -91539.91538762038, 0.02, -0.022, 0.978, 192.0, 0.0, 0.0, 0.0, 0.0, 0.0, 0.0, 0.0, 0.0, 0.0, 1.7172380211199756E9, 0.0, 2024-06-01 03:33:41.119
152.0, 187500.0, -33382.68797191238, 187500.0, 187500.0, 187500.0, 187500.0, 187500.0, -91526.19141652483, 0.02, -0.022, 0.978, 192.0, 0.0, 0.0, 0.0, 0.0, 0.0, 0.0, 0.0, 0.0, 0.0, 1.7172380211199875E9, 0.0, 2024-06-01 03:33:41.119
153.0, 187500.0, -33392.925070872916, 187500.0, 187500.0, 187500.0, 187500.0, 187500.0, -91523.53155893464, 0.02, -0.022, 0.978, 192.0, 0.0, 0.0, 0.0, 0.0, 0.0, 0.0, 0.0, 0.0, 0.0, 1.7172380211199996E9, 0.0, 2024-06-01 03:33:41.119
154.0, 187500.0, -33394.89202438498, 187500.0, 187500.0, 187500.0, 187500.0, 187500.0, -91532.49460846122, 0.02, -0.022, 0.978, 192.0, 0.0, 0.0, 0.0, 0.0, 0.0, 0.0, 0.0, 0.0, 0.0, 1.717238021120021E9, 0.0, 2024-06-01 03:33:41.120
155.0, 187500.0, -33383.09030331258, 187500.0, 187500.0, 187500.0, 187500.0, 187500.0, -91536.8084951411, 0.02, -0.022, 0.978, 192.0, 0.0, 0.0, 0.0, 0.0, 0.0, 0.0, 0.0, 0.0, 0.0, 1.7172380211200345E9, 0.0, 2024-06-01 03:33:41.120
156.0, 187500.0, -33377.815291621126, 187500.0, 187500.0, 187500.0, 187500.0, 187500.0, -91522.12339903395, 0.02, -0.022, 0.978, 192.0, 0.0, 0.0, 0.0, 0.0, 0.0, 0.0, 0.0, 0.0, 0.0, 1.7172380211200469E9, 0.0, 2024-06-01 03:33:41.120
157.0, 187500.0, -33389.0805708266, 187500.0, 187500.0, 187500.0, 187500.0, 187500.0, -91518.86004434348, 0.02, -0.022, 0.978, 192.0, 0.0, 0.0, 0.0, 0.0, 0.0, 0.0, 0.0, 0.0, 0.0, 1.7172380211200588E9, 0.0, 2024-06-01 03:33:41.120
158.0, 187500.0, -33396.8813296415, 187500.0, 187500.0, 187500.0, 187500.0, 187500.0, -91529.4547712153, 0.02, -0.022, 0.978, 192.0, 0.0, 0.0, 0.0, 0.0, 0.0, 0.0, 0.0, 0.0, 0.0, 1.717238021120071E9, 0.0, 2024-06-01 03:33:41.120
159.0, 187500.0, -33381.70449515635, 187500.0, 187500.0, 187500.0, 187500.0, 187500.0, -91535.04270732912, 0.016, -0.02, 0.986, 192.0, 0.0, 128.0, 255.0, 96.0, 30.0, 208.0, 0.0, 0.0, 0.0, 1.717238021120083E9, 0.0, 2024-06-01 03:33:41.120
160.0, 187500.0, -33370.46156769533, 187500.0, 187500.0, 187500.0, 187500.0, 187500.0, -91524.87266360196, 0.016, -0.02, 0.986, 192.0, 0.0, 0.0, 0.0, 0.0, 0.0, 0.0, 0.0, 0.0, 0.0, 1.717238021120096E9, 0.0, 2024-06-01 03:33:41.120
161.0, 187500.0, -33383.58204169059, 187500.0, 187500.0, 187500.0, 187500.0, 187500.0, -91524.0009455682, 0.016, -0.02, 0.986, 192.0, 0.0, 0.0, 0.0, 0.0, 0.0, 0.0, 0.0, 0.0, 0.0, 1.717238021120109E9, 0.0, 2024-06-01 03:33:41.120
162.0, 187500.0, -33386.39836149196, 187500.0, 187500.0, 187500.0, 187500.0, 187500.0, -91524.53738743514, 0.016, -0.02, 0.986, 192.0, 0.0, 0.0, 0.0, 0.0, 0.0, 0.0, 0.0, 0.0, 0.0, 1.7172380211201212E9, 0.0, 2024-06-01 03:33:41.120
163.0, 187500.0, -33379.02228582171, 187500.0, 187500.0, 187500.0, 187500.0, 187500.0, -91523.48685544574, 0.016, -0.02, 0.986, 192.0, 0.0, 0.0, 0.0, 0.0, 0.0, 0.0, 0.0, 0.0, 0.0, 1.7172380211201332E9, 0.0, 2024-06-01 03:33:41.120
164.0, 187500.0, -33372.24970725176, 187500.0, 187500.0, 187500.0, 187500.0, 187500.0, -91520.82699785555, 0.016, -0.02, 0.986, 192.0, 0.0, 0.0, 0.0, 0.0, 0.0, 0.0, 0.0, 0.0, 0.0, 1.7172380211201463E9, 0.0, 2024-06-01 03:33:41.120
165.0, 187500.0, -33375.22248926431, 187500.0, 187500.0, 187500.0, 187500.0, 187500.0, -91514.68026813034, 0.016, -0.02, 0.986, 192.0, 0.0, 0.0, 0.0, 0.0, 0.0, 0.0, 0.0, 0.0, 0.0, 1.7172380211201584E9, 0.0, 2024-06-01 03:33:41.120
166.0, 187500.0, -33383.962021346335, 187500.0, 187500.0, 187500.0, 187500.0, 187500.0, -91522.77159962316, 0.016, -0.02, 0.986, 192.0, 0.0, 0.0, 0.0, 0.0, 0.0, 0.0, 0.0, 0.0, 0.0, 1.7172380211201704E9, 0.0, 2024-06-01 03:33:41.120
167.0, 187500.0, -33379.13404454399, 187500.0, 187500.0, 187500.0, 187500.0, 187500.0, -91536.1602945519, 0.016, -0.02, 0.986, 192.0, 0.0, 0.0, 0.0, 0.0, 0.0, 0.0, 0.0, 0.0, 0.0, 1.7172380211201828E9, 0.0, 2024-06-01 03:33:41.120
168.0, 187500.0, -33373.03201830769, 187500.0, 187500.0, 187500.0, 187500.0, 187500.0, -91530.92998634935, 0.016, -0.02, 0.986, 192.0, 0.0, 0.0, 0.0, 0.0, 0.0, 0.0, 0.0, 0.0, 0.0, 1.717238021120195E9, 0.0, 2024-06-01 03:33:41.120
169.0, 187500.0, -33381.19040503388, 187500.0, 187500.0, 187500.0, 187500.0, 187500.0, -91522.99511706771, 0.02, -0.026000000000000002, 0.988, 192.0, 0.0, 160.0, 255.0, 48.0, 30.0, 224.0, 0.0, 0.0, 0.0, 1.7172380211202157E9, 0.0, 2024-06-01 03:33:41.120
170.0, 187500.0, -33388.09709407057, 187500.0, 187500.0, 187500.0, 187500.0, 187500.0, -91531.64524217192, 0.02, -0.026000000000000002, 0.988, 192.0, 0.0, 0.0, 0.0, 0.0, 0.0, 0.0, 0.0, 0.0, 0.0, 1.7172380211202295E9, 0.0, 2024-06-01 03:33:41.120
171.0, 187500.0, -33384.65492542445, 187500.0, 187500.0, 187500.0, 187500.0, 187500.0, -91540.16125680938, 0.02, -0.026000000000000002, 0.988, 192.0, 0.0, 0.0, 0.0, 0.0, 0.0, 0.0, 0.0, 0.0, 0.0, 1.717238021120242E9, 0.0, 2024-06-01 03:33:41.120
172.0, 187500.0, -33368.449910694355, 187500.0, 187500.0, 187500.0, 187500.0, 187500.0, -91531.98051833875, 0.02, -0.026000000000000002, 0.988, 192.0, 0.0, 0.0, 0.0, 0.0, 0.0, 0.0, 0.0, 0.0, 0.0, 1.7172380211202543E9, 0.0, 2024-06-01 03:33:41.120
173.0, 187500.0, -33369.85807059504, 187500.0, 187500.0, 187500.0, 187500.0, 187500.0, -91521.095218789, 0.02, -0.026000000000000002, 0.988, 192.0, 0.0, 0.0, 0.0, 0.0, 0.0, 0.0, 0.0, 0.0, 0.0, 1.7172380211202667E9, 0.0, 2024-06-01 03:33:41.120
174.0, 187500.0, -33381.57038468962, 187500.0, 187500.0, 187500.0, 187500.0, 187500.0, -91522.19045426733, 0.02, -0.026000000000000002, 0.988, 192.0, 0.0, 0.0, 0.0, 0.0, 0.0, 0.0, 0.0, 0.0, 0.0, 1.7172380211202788E9, 0.0, 2024-06-01 03:33:41.120
175.0, 187500.0, -33378.999934077256, 187500.0, 187500.0, 187500.0, 187500.0, 187500.0, -91525.38675372444, 0.02, -0.026000000000000002, 0.988, 192.0, 0.0, 0.0, 0.0, 0.0, 0.0, 0.0, 0.0, 0.0, 0.0, 1.7172380211202908E9, 0.0, 2024-06-01 03:33:41.120
176.0, 187500.0, -33370.79684386216, 187500.0, 187500.0, 187500.0, 187500.0, 187500.0, -91526.7502101362, 0.02, -0.026000000000000002, 0.988, 192.0, 0.0, 0.0, 0.0, 0.0, 0.0, 0.0, 0.0, 0.0, 0.0, 1.7172380211203032E9, 0.0, 2024-06-01 03:33:41.120
177.0, 187500.0, -33370.327457228595, 187500.0, 187500.0, 187500.0, 187500.0, 187500.0, -91522.92806183435, 0.02, -0.026000000000000002, 0.988, 192.0, 0.0, 0.0, 0.0, 0.0, 0.0, 0.0, 0.0, 0.0, 0.0, 1.7172380211203156E9, 0.0, 2024-06-01 03:33:41.120
178.0, 187500.0, -33379.26815501072, 187500.0, 187500.0, 187500.0, 187500.0, 187500.0, -91519.21767225477, 0.02, -0.026000000000000002, 0.988, 192.0, 0.0, 0.0, 0.0, 0.0, 0.0, 0.0, 0.0, 0.0, 0.0, 1.7172380211203277E9, 0.0, 2024-06-01 03:33:41.120
179.0, 187500.0, -33380.13987304448, 187500.0, 187500.0, 187500.0, 187500.0, 187500.0, -91525.6996781468, 0.02, -0.024, 0.982, 192.0, 0.0, 160.0, 255.0, 64.0, 30.0, 176.0, 0.0, 0.0, 0.0, 1.71723802112034E9, 0.0, 2024-06-01 03:33:41.120
180.0, 187500.0, -33371.53445142919, 187500.0, 187500.0, 187500.0, 187500.0, 187500.0, -91534.5062654622, 0.02, -0.024, 0.982, 192.0, 0.0, 0.0, 0.0, 0.0, 0.0, 0.0, 0.0, 0.0, 0.0, 1.7172380211203532E9, 0.0, 2024-06-01 03:33:41.120
181.0, 187500.0, -33369.209870005834, 187500.0, 187500.0, 187500.0, 187500.0, 187500.0, -91527.42076246986, 0.02, -0.024, 0.982, 192.0, 0.0, 0.0, 0.0, 0.0, 0.0, 0.0, 0.0, 0.0, 0.0, 1.7172380211203651E9, 0.0, 2024-06-01 03:33:41.120
182.0, 187500.0, -33373.836681108085, 187500.0, 187500.0, 187500.0, 187500.0, 187500.0, -91518.01067805418, 0.02, -0.024, 0.982, 192.0, 0.0, 0.0, 0.0, 0.0, 0.0, 0.0, 0.0, 0.0, 0.0, 1.7172380211203775E9, 0.0, 2024-06-01 03:33:41.120
183.0, 187500.0, -33375.1777857754, 187500.0, 187500.0, 187500.0, 187500.0, 187500.0, -91524.2468147572, 0.02, -0.024, 0.982, 192.0, 0.0, 0.0, 0.0, 0.0, 0.0, 0.0, 0.0, 0.0, 0.0, 1.7172380211203911E9, 0.0, 2024-06-01 03:33:41.120
184.0, 187500.0, -33365.38772170398, 187500.0, 187500.0, 187500.0, 187500.0, 187500.0, -91527.01843106966, 0.02, -0.024, 0.982, 192.0, 0.0, 0.0, 0.0, 0.0, 0.0, 0.0, 0.0, 0.0, 0.0, 1.717238021120427E9, 0.0, 2024-06-01 03:33:41.120
185.0, 187500.0, -33362.81727109161, 187500.0, 187500.0, 187500.0, 187500.0, 187500.0, -91523.37509672345, 0.02, -0.024, 0.982, 192.0, 0.0, 0.0, 0.0, 0.0, 0.0, 0.0, 0.0, 0.0, 0.0, 1.7172380211204531E9, 0.0, 2024-06-01 03:33:41.120
186.0, 187500.0, -33374.88721309748, 187500.0, 187500.0, 187500.0, 187500.0, 187500.0, -91522.3022129896, 0.02, -0.024, 0.982, 192.0, 0.0, 0.0, 0.0, 0.0, 0.0, 0.0, 0.0, 0.0, 0.0, 1.717238021120612E9, 0.0, 2024-06-01 03:33:41.120
187.0, 187500.0, -33377.99410557677, 187500.0, 187500.0, 187500.0, 187500.0, 187500.0, -91528.13601829244, 0.02, -0.024, 0.982, 192.0, 0.0, 0.0, 0.0, 0.0, 0.0, 0.0, 0.0, 0.0, 0.0, 1.7172380211206255E9, 0.0, 2024-06-01 03:33:41.120
188.0, 187500.0, -33368.80753860564, 187500.0, 187500.0, 187500.0, 187500.0, 187500.0, -91530.81822762707, 0.02, -0.024, 0.982, 192.0, 0.0, 0.0, 0.0, 0.0, 0.0, 0.0, 0.0, 0.0, 0.0, 1.7172380211206384E9, 0.0, 2024-06-01 03:33:41.120
189.0, 187500.0, -33361.9232013134, 187500.0, 187500.0, 187500.0, 187500.0, 187500.0, -91519.12826527694, 0.02, -0.022, 0.984, 192.0, 0.0, 160.0, 255.0, 80.0, 30.0, 192.0, 0.0, 0.0, 0.0, 1.7172380211206508E9, 0.0, 2024-06-01 03:33:41.120
190.0, 187500.0, -33364.91833507041, 187500.0, 187500.0, 187500.0, 187500.0, 187500.0, -91506.2983639596, 0.02, -0.022, 0.984, 192.0, 0.0, 0.0, 0.0, 0.0, 0.0, 0.0, 0.0, 0.0, 0.0, 1.7172380211206648E9, 0.0, 2024-06-01 03:33:41.120
191.0, 187500.0, -33369.67925663939, 187500.0, 187500.0, 187500.0, 187500.0, 187500.0, -91510.63460238393, 0.02, -0.022, 0.984, 192.0, 0.0, 0.0, 0.0, 0.0, 0.0, 0.0, 0.0, 0.0, 0.0, 1.7172380211206772E9, 0.0, 2024-06-01 03:33:41.120
192.0, 187500.0, -33361.96790480231, 187500.0, 187500.0, 187500.0, 187500.0, 187500.0, -91518.77063736565, 0.02, -0.022, 0.984, 192.0, 0.0, 0.0, 0.0, 0.0, 0.0, 0.0, 0.0, 0.0, 0.0, 1.7172380211206896E9, 0.0, 2024-06-01 03:33:41.120
193.0, 187500.0, -33359.19628848985, 187500.0, 187500.0, 187500.0, 187500.0, 187500.0, -91516.8483873425, 0.02, -0.022, 0.984, 192.0, 0.0, 0.0, 0.0, 0.0, 0.0, 0.0, 0.0, 0.0, 0.0, 1.7172380211207018E9, 0.0, 2024-06-01 03:33:41.120
194.0, 187500.0, -33361.36440770202, 187500.0, 187500.0, 187500.0, 187500.0, 187500.0, -91510.47814017274, 0.02, -0.022, 0.984, 192.0, 0.0, 0.0, 0.0, 0.0, 0.0, 0.0, 0.0, 0.0, 0.0, 1.717238021120714E9, 0.0, 2024-06-01 03:33:41.120
195.0, 187500.0, -33370.48391943979, 187500.0, 187500.0, 187500.0, 187500.0, 187500.0, -91519.12826527694, 0.02, -0.022, 0.984, 192.0, 0.0, 0.0, 0.0, 0.0, 0.0, 0.0, 0.0, 0.0, 0.0, 1.7172380211207263E9, 0.0, 2024-06-01 03:33:41.120
196.0, 187500.0, -33369.902774083945, 187500.0, 187500.0, 187500.0, 187500.0, 187500.0, -91527.93485259234, 0.02, -0.022, 0.984, 192.0, 0.0, 0.0, 0.0, 0.0, 0.0, 0.0, 0.0, 0.0, 0.0, 1.7172380211207385E9, 0.0, 2024-06-01 03:33:41.120
197.0, 187500.0, -33355.97763728829, 187500.0, 187500.0, 187500.0, 187500.0, 187500.0, -91520.4470181998, 0.02, -0.022, 0.984, 192.0, 0.0, 0.0, 0.0, 0.0, 0.0, 0.0, 0.0, 0.0, 0.0, 1.7172380211207507E9, 0.0, 2024-06-01 03:33:41.120
198.0, 187500.0, -33358.95041930085, 187500.0, 187500.0, 187500.0, 187500.0, 187500.0, -91512.33333496253, 0.02, -0.022, 0.984, 192.0, 0.0, 0.0, 0.0, 0.0, 0.0, 0.0, 0.0, 0.0, 0.0, 1.7172380211207628E9, 0.0, 2024-06-01 03:33:41.120
199.0, 187500.0, -33368.40520720544, 187500.0, 187500.0, 187500.0, 187500.0, 187500.0, -91509.96405005027, 0.018000000000000002, -0.02, 0.984, 192.0, 0.0, 144.0, 255.0, 96.0, 30.0, 192.0, 0.0, 0.0, 0.0, 1.7172380211207883E9, 0.0, 2024-06-01 03:33:41.120
200.0, 187500.0, -33359.576268145596, 187500.0, 187500.0, 187500.0, 187500.0, 187500.0, -91513.0485907851, 0.018000000000000002, -0.02, 0.984, 192.0, 0.0, 0.0, 0.0, 0.0, 0.0, 0.0, 0.0, 0.0, 0.0, 1.7172380211208017E9, 0.0, 2024-06-01 03:33:41.120
201.0, 187500.0, -33347.21575346181, 187500.0, 187500.0, 187500.0, 187500.0, 187500.0, -91508.69000061632, 0.018000000000000002, -0.02, 0.984, 192.0, 0.0, 0.0, 0.0, 0.0, 0.0, 0.0, 0.0, 0.0, 0.0, 1.7172380211208146E9, 0.0, 2024-06-01 03:33:41.120
202.0, 187500.0, -33345.092337738555, 187500.0, 187500.0, 187500.0, 187500.0, 187500.0, -91506.25366047068, 0.018000000000000002, -0.02, 0.984, 192.0, 0.0, 0.0, 0.0, 0.0, 0.0, 0.0, 0.0, 0.0, 0.0, 1.7172380211208267E9, 0.0, 2024-06-01 03:33:41.120
203.0, 187500.0, -33351.01555001921, 187500.0, 187500.0, 187500.0, 187500.0, 187500.0, -91506.43247442633, 0.018000000000000002, -0.02, 0.984, 192.0, 0.0, 0.0, 0.0, 0.0, 0.0, 0.0, 0.0, 0.0, 0.0, 1.717238021120839E9, 0.0, 2024-06-01 03:33:41.120
204.0, 187500.0, -33346.768718572705, 187500.0, 187500.0, 187500.0, 187500.0, 187500.0, -91505.2478319702, 0.018000000000000002, -0.02, 0.984, 192.0, 0.0, 0.0, 0.0, 0.0, 0.0, 0.0, 0.0, 0.0, 0.0, 1.7172380211208513E9, 0.0, 2024-06-01 03:33:41.120
205.0, 187500.0, -33335.995177745244, 187500.0, 187500.0, 187500.0, 187500.0, 187500.0, -91508.06415177157, 0.018000000000000002, -0.02, 0.984, 192.0, 0.0, 0.0, 0.0, 0.0, 0.0, 0.0, 0.0, 0.0, 0.0, 1.7172380211208637E9, 0.0, 2024-06-01 03:33:41.120
206.0, 187500.0, -33346.276980194685, 187500.0, 187500.0, 187500.0, 187500.0, 187500.0, -91511.75218960669, 0.018000000000000002, -0.02, 0.984, 192.0, 0.0, 0.0, 0.0, 0.0, 0.0, 0.0, 0.0, 0.0, 0.0, 1.7172380211208758E9, 0.0, 2024-06-01 03:33:41.120
207.0, 187500.0, -33358.25751522273, 187500.0, 187500.0, 187500.0, 187500.0, 187500.0, -91502.45386391328, 0.018000000000000002, -0.02, 0.984, 192.0, 0.0, 0.0, 0.0, 0.0, 0.0, 0.0, 0.0, 0.0, 0.0, 1.717238021120888E9, 0.0, 2024-06-01 03:33:41.120
208.0, 187500.0, -33355.77647158819, 187500.0, 187500.0, 187500.0, 187500.0, 187500.0, -91503.88437555842, 0.02, -0.02, 0.984, 192.0, 0.0, 160.0, 255.0, 96.0, 30.0, 192.0, 0.0, 0.0, 0.0, 1.7172380211209004E9, 0.0, 2024-06-01 03:33:41.120
209.0, 187500.0, -33349.0709482516, 187500.0, 187500.0, 187500.0, 187500.0, 187500.0, -91522.43632345634, 0.02, -0.02, 0.984, 192.0, 0.0, 0.0, 0.0, 0.0, 0.0, 0.0, 0.0, 0.0, 0.0, 1.717238021120913E9, 0.0, 2024-06-01 03:33:41.120
210.0, 187500.0, -33337.9174277684, 187500.0, 187500.0, 187500.0, 187500.0, 187500.0, -91512.37803845144, 0.02, -0.02, 0.984, 192.0, 0.0, 0.0, 0.0, 0.0, 0.0, 0.0, 0.0, 0.0, 0.0, 1.7172380211209254E9, 0.0, 2024-06-01 03:33:41.120
211.0, 187500.0, -33346.902829039434, 187500.0, 187500.0, 187500.0, 187500.0, 187500.0, -91502.65502961338, 0.02, -0.02, 0.984, 192.0, 0.0, 0.0, 0.0, 0.0, 0.0, 0.0, 0.0, 0.0, 0.0, 1.7172380211209795E9, 0.0, 2024-06-01 03:33:41.120
212.0, 187500.0, -33346.58990461706, 187500.0, 187500.0, 187500.0, 187500.0, 187500.0, -91503.28087845813, 0.02, -0.02, 0.984, 192.0, 0.0, 0.0, 0.0, 0.0, 0.0, 0.0, 0.0, 0.0, 0.0, 1.7172380211209924E9, 0.0, 2024-06-01 03:33:41.120
213.0, 187500.0, -33339.21382894681, 187500.0, 187500.0, 187500.0, 187500.0, 187500.0, -91504.64433486991, 0.02, -0.02, 0.984, 192.0, 0.0, 0.0, 0.0, 0.0, 0.0, 0.0, 0.0, 0.0, 0.0, 1.7172380211210046E9, 0.0, 2024-06-01 03:33:41.121
214.0, 187500.0, -33328.105011952524, 187500.0, 187500.0, 187500.0, 187500.0, 187500.0, -91500.50926214567, 0.02, -0.02, 0.984, 192.0, 0.0, 0.0, 0.0, 0.0, 0.0, 0.0, 0.0, 0.0, 0.0, 1.7172380211210277E9, 0.0, 2024-06-01 03:33:41.121
215.0, 187500.0, -33337.93977951286, 187500.0, 187500.0, 187500.0, 187500.0, 187500.0, -91497.98351502222, 0.02, -0.02, 0.984, 192.0, 0.0, 0.0, 0.0, 0.0, 0.0, 0.0, 0.0, 0.0, 0.0, 1.7172380211210403E9, 0.0, 2024-06-01 03:33:41.121
216.0, 187500.0, -33351.596695375054, 187500.0, 187500.0, 187500.0, 187500.0, 187500.0, -91502.2526982132, 0.02, -0.02, 0.984, 192.0, 0.0, 0.0, 0.0, 0.0, 0.0, 0.0, 0.0, 0.0, 0.0, 1.7172380211210525E9, 0.0, 2024-06-01 03:33:41.121
217.0, 187500.0, -33345.98640751677, 187500.0, 187500.0, 187500.0, 187500.0, 187500.0, -91505.4489976703, 0.02, -0.02, 0.984, 192.0, 0.0, 0.0, 0.0, 0.0, 0.0, 0.0, 0.0, 0.0, 0.0, 1.7172380211211653E9, 0.0, 2024-06-01 03:33:41.121
218.0, 187500.0, -33337.87272427949, 187500.0, 187500.0, 187500.0, 187500.0, 187500.0, -91501.98447727972, 0.024, -0.018000000000000002, 0.986, 192.0, 0.0, 192.0, 255.0, 112.0, 30.0, 208.0, 0.0, 0.0, 0.0, 1.717238021121178E9, 0.0, 2024-06-01 03:33:41.121
219.0, 187500.0, -33336.88924752346, 187500.0, 187500.0, 187500.0, 187500.0, 187500.0, -91494.9436777763, 0.024, -0.018000000000000002, 0.986, 192.0, 0.0, 0.0, 0.0, 0.0, 0.0, 0.0, 0.0, 0.0, 0.0, 1.717238021121191E9, 0.0, 2024-06-01 03:33:41.121
220.0, 187500.0, -33347.953361028834, 187500.0, 187500.0, 187500.0, 187500.0, 187500.0, -91497.26825919966, 0.024, -0.018000000000000002, 0.986, 192.0, 0.0, 0.0, 0.0, 0.0, 0.0, 0.0, 0.0, 0.0, 0.0, 1.7172380211212032E9, 0.0, 2024-06-01 03:33:41.121
221.0, 187500.0, -33346.18757321687, 187500.0, 187500.0, 187500.0, 187500.0, 187500.0, -91507.05832327108, 0.024, -0.018000000000000002, 0.986, 192.0, 0.0, 0.0, 0.0, 0.0, 0.0, 0.0, 0.0, 0.0, 0.0, 1.7172380211212156E9, 0.0, 2024-06-01 03:33:41.121
222.0, 187500.0, -33332.64241607695, 187500.0, 187500.0, 187500.0, 187500.0, 187500.0, -91503.12441624695, 0.024, -0.018000000000000002, 0.986, 192.0, 0.0, 0.0, 0.0, 0.0, 0.0, 0.0, 0.0, 0.0, 0.0, 1.717238021121228E9, 0.0, 2024-06-01 03:33:41.121
223.0, 187500.0, -33329.60257883103, 187500.0, 187500.0, 187500.0, 187500.0, 187500.0, -91494.78721556511, 0.024, -0.018000000000000002, 0.986, 192.0, 0.0, 0.0, 0.0, 0.0, 0.0, 0.0, 0.0, 0.0, 0.0, 1.7172380211212404E9, 0.0, 2024-06-01 03:33:41.121
224.0, 187500.0, -33340.30906442512, 187500.0, 187500.0, 187500.0, 187500.0, 187500.0, -91492.52968937514, 0.024, -0.018000000000000002, 0.986, 192.0, 0.0, 0.0, 0.0, 0.0, 0.0, 0.0, 0.0, 0.0, 0.0, 1.717238021121253E9, 0.0, 2024-06-01 03:33:41.121
225.0, 187500.0, -33345.78524181667, 187500.0, 187500.0, 187500.0, 187500.0, 187500.0, -91503.66085811387, 0.024, -0.018000000000000002, 0.986, 192.0, 0.0, 0.0, 0.0, 0.0, 0.0, 0.0, 0.0, 0.0, 0.0, 1.71723802159932E9, 0.0, 2024-06-01 03:33:41.599
226.0, 187500.0, -33335.54814285614, 187500.0, 187500.0, 187500.0, 187500.0, 187500.0, -91503.23617496922, 0.024, -0.018000000000000002, 0.986, 192.0, 0.0, 0.0, 0.0, 0.0, 0.0, 0.0, 0.0, 0.0, 0.0, 1.7172380215993717E9, 0.0, 2024-06-01 03:33:41.599
227.0, 187500.0, -33334.944645755844, 187500.0, 187500.0, 187500.0, 187500.0, 187500.0, -91501.87271855745, 0.024, -0.018000000000000002, 0.986, 192.0, 0.0, 0.0, 0.0, 0.0, 0.0, 0.0, 0.0, 0.0, 0.0, 1.7172380215994048E9, 0.0, 2024-06-01 03:33:41.599
228.0, 187500.0, -33341.963093514816, 187500.0, 187500.0, 187500.0, 187500.0, 187500.0, -91506.52188140416, 0.03, -0.018000000000000002, 0.988, 192.0, 0.0, 240.0, 255.0, 112.0, 30.0, 224.0, 0.0, 0.0, 0.0, 1.7172380215994344E9, 0.0, 2024-06-01 03:33:41.599
229.0, 187500.0, -33342.45483189283, 187500.0, 187500.0, 187500.0, 187500.0, 187500.0, -91512.57920415154, 0.03, -0.018000000000000002, 0.988, 192.0, 0.0, 0.0, 0.0, 0.0, 0.0, 0.0, 0.0, 0.0, 0.0, 1.7172380215995004E9, 0.0, 2024-06-01 03:33:41.599
230.0, 187500.0, -33333.40237538843, 187500.0, 187500.0, 187500.0, 187500.0, 187500.0, -91510.25462272819, 0.03, -0.018000000000000002, 0.988, 192.0, 0.0, 0.0, 0.0, 0.0, 0.0, 0.0, 0.0, 0.0, 0.0, 1.7172380215995295E9, 0.0, 2024-06-01 03:33:41.599
231.0, 187500.0, -33327.345052641045, 187500.0, 187500.0, 187500.0, 187500.0, 187500.0, -91498.7434743337, 0.03, -0.018000000000000002, 0.988, 192.0, 0.0, 0.0, 0.0, 0.0, 0.0, 0.0, 0.0, 0.0, 0.0, 1.7172380215995593E9, 0.0, 2024-06-01 03:33:41.599
232.0, 187500.0, -33334.40820388892, 187500.0, 187500.0, 187500.0, 187500.0, 187500.0, -91491.41210215236, 0.03, -0.018000000000000002, 0.988, 192.0, 0.0, 0.0, 0.0, 0.0, 0.0, 0.0, 0.0, 0.0, 0.0, 1.7172380215995753E9, 0.0, 2024-06-01 03:33:41.599
233.0, 187500.0, -33335.05640447812, 187500.0, 187500.0, 187500.0, 187500.0, 187500.0, -91490.02629399614, 0.03, -0.018000000000000002, 0.988, 192.0, 0.0, 0.0, 0.0, 0.0, 0.0, 0.0, 0.0, 0.0, 0.0, 1.7172380215995915E9, 0.0, 2024-06-01 03:33:41.599
234.0, 187500.0, -33324.685195050864, 187500.0, 187500.0, 187500.0, 187500.0, 187500.0, -91498.2517359557, 0.03, -0.018000000000000002, 0.988, 192.0, 0.0, 0.0, 0.0, 0.0, 0.0, 0.0, 0.0, 0.0, 0.0, 1.7172380215996068E9, 0.0, 2024-06-01 03:33:41.599
235.0, 187500.0, -33325.087526451054, 187500.0, 187500.0, 187500.0, 187500.0, 187500.0, -91503.88437555842, 0.03, -0.018000000000000002, 0.988, 192.0, 0.0, 0.0, 0.0, 0.0, 0.0, 0.0, 0.0, 0.0, 0.0, 1.7172380215996225E9, 0.0, 2024-06-01 03:33:41.599
236.0, 187500.0, -33334.69877656684, 187500.0, 187500.0, 187500.0, 187500.0, 187500.0, -91504.33141044753, 0.03, -0.018000000000000002, 0.988, 192.0, 0.0, 0.0, 0.0, 0.0, 0.0, 0.0, 0.0, 0.0, 0.0, 1.717238021599638E9, 0.0, 2024-06-01 03:33:41.599
237.0, 187500.0, -33341.0690237366, 187500.0, 187500.0, 187500.0, 187500.0, 187500.0, -91514.25558498569, 0.03, -0.018000000000000002, 0.988, 192.0, 0.0, 0.0, 0.0, 0.0, 0.0, 0.0, 0.0, 0.0, 0.0, 1.7172380215996532E9, 0.0, 2024-06-01 03:33:41.599
238.0, 187500.0, -33329.55787534212, 187500.0, 187500.0, 187500.0, 187500.0, 187500.0, -91513.67443962985, 0.024, -0.022, 0.984, 192.0, 0.0, 192.0, 255.0, 80.0, 30.0, 192.0, 0.0, 0.0, 0.0, 1.7172380215996685E9, 0.0, 2024-06-01 03:33:41.599
239.0, 187500.0, -33316.23623564676, 187500.0, 187500.0, 187500.0, 187500.0, 187500.0, -91494.4966428872, 0.024, -0.022, 0.984, 192.0, 0.0, 0.0, 0.0, 0.0, 0.0, 0.0, 0.0, 0.0, 0.0, 1.7172380215996852E9, 0.0, 2024-06-01 03:33:41.599
240.0, 187500.0, -33322.04768920514, 187500.0, 187500.0, 187500.0, 187500.0, 187500.0, -91489.42279689584, 0.024, -0.022, 0.984, 192.0, 0.0, 0.0, 0.0, 0.0, 0.0, 0.0, 0.0, 0.0, 0.0, 1.7172380215997007E9, 0.0, 2024-06-01 03:33:41.599
241.0, 187500.0, -33331.90480850993, 187500.0, 187500.0, 187500.0, 187500.0, 187500.0, -91499.19050922281, 0.024, -0.022, 0.984, 192.0, 0.0, 0.0, 0.0, 0.0, 0.0, 0.0, 0.0, 0.0, 0.0, 1.7172380215997157E9, 0.0, 2024-06-01 03:33:41.599
