%OpenBCI Raw EXG Data
%Number of channels = 8
%Sample Rate = 250 Hz
%Board = OpenBCI_GUI$BoardCytonSerial
Sample Index, EXG Channel 0, EXG Channel 1, EXG Channel 2, EXG Channel 3, EXG Channel 4, EXG Channel 5, EXG Channel 6, EXG Channel 7, Accel Channel 0, Accel Channel 1, Accel Channel 2, Other, Other, Other, Other, Other, Other, Other, Analog Channel 0, Analog Channel 1, Analog Channel 2, Timestamp, Other, Timestamp (Formatted)
130.0, 187500.0, -31798.396324920217, 187500.0, 187500.0, 187500.0, 187500.0, 187500.0, -91293.73327418962, 0.022, -0.016, 0.984, 192.0, 0.0, 176.0, 255.0, 128.0, 30.0, 192.0, 0.0, 0.0, 0.0, 1.717238038537809E9, 0.0, 2024-06-01 03:33:58.537
131.0, 187500.0, -31800.63149936575, 187500.0, 187500.0, 187500.0, 187500.0, 187500.0, -91296.63900096882, 0.022, -0.016, 0.984, 192.0, 0.0, 0.0, 0.0, 0.0, 0.0, 0.0, 0.0, 0.0, 0.0, 1.71723803853786E9, 0.0, 2024-06-01 03:33:58.537
132.0, 187500.0, -31784.851167780304, 187500.0, 187500.0, 187500.0, 187500.0, 187500.0, -91301.15405334879, 0.022, -0.016, 0.984, 192.0, 0.0, 0.0, 0.0, 0.0, 0.0, 0.0, 0.0, 0.0, 0.0, 1.7172380385378742E9, 0.0, 2024-06-01 03:33:58.537
133.0, 187500.0, -31784.71705731357, 187500.0, 187500.0, 187500.0, 187500.0, 187500.0, -91299.79059693702, 0.022, -0.016, 0.984, 192.0, 0.0, 0.0, 0.0, 0.0, 0.0, 0.0, 0.0, 0.0, 0.0, 1.7172380385378869E9, 0.0, 2024-06-01 03:33:58.537
134.0, 187500.0, -31793.59069986233, 187500.0, 187500.0, 187500.0, 187500.0, 187500.0, -91294.11325384537, 0.022, -0.016, 0.984, 192.0, 0.0, 0.0, 0.0, 0.0, 0.0, 0.0, 0.0, 0.0, 0.0, 1.7172380385378995E9, 0.0, 2024-06-01 03:33:58.537
135.0, 187500.0, -31797.47990339755, 187500.0, 187500.0, 187500.0, 187500.0, 187500.0, -91297.98010563613, 0.022, -0.016, 0.984, 192.0, 0.0, 0.0, 0.0, 0.0, 0.0, 0.0, 0.0, 0.0, 0.0, 1.717238038537912E9, 0.0, 2024-06-01 03:33:58.537
136.0, 187500.0, -31793.09896148431, 187500.0, 187500.0, 187500.0, 187500.0, 187500.0, -91310.92176567577, 0.022, -0.016, 0.984, 192.0, 0.0, 0.0, 0.0, 0.0, 0.0, 0.0, 0.0, 0.0, 0.0, 1.7172380385379252E9, 0.0, 2024-06-01 03:33:58.537
137.0, 187500.0, -31778.01153397698, 187500.0, 187500.0, 187500.0, 187500.0, 187500.0, -91298.87417541436, 0.022, -0.016, 0.984, 192.0, 0.0, 0.0, 0.0, 0.0, 0.0, 0.0, 0.0, 0.0, 0.0, 1.7172380385379376E9, 0.0, 2024-06-01 03:33:58.537
138.0, 187500.0, -31793.34483067332, 187500.0, 187500.0, 187500.0, 187500.0, 187500.0, -91295.4543585127, 0.022, -0.016, 0.984, 192.0, 0.0, 0.0, 0.0, 0.0, 0.0, 0.0, 0.0, 0.0, 0.0, 1.71723803853795E9, 0.0, 2024-06-01 03:33:58.537
139.0, 187500.0, -31800.76560983248, 187500.0, 187500.0, 187500.0, 187500.0, 187500.0, -91302.4504545272, 0.022, -0.016, 0.984, 192.0, 0.0, 0.0, 0.0, 0.0, 0.0, 0.0, 0.0, 0.0, 0.0, 1.7172380385379624E9, 0.0, 2024-06-01 03:33:58.537
140.0, 187500.0, -31792.651926595205, 187500.0, 187500.0, 187500.0, 187500.0, 187500.0, -91310.83235869794, 0.022, -0.022, 0.986, 192.0, 0.0, 176.0, 255.0, 80.0, 30.0, 208.0, 0.0, 0.0, 0.0, 1.7172380385379744E9, 0.0, 2024-06-01 03:33:58.537
141.0, 187500.0, -31789.567385860373, 187500.0, 187500.0, 187500.0, 187500.0, 187500.0, -91309.15597786379, 0.022, -0.022, 0.986, 192.0, 0.0, 0.0, 0.0, 0.0, 0.0, 0.0, 0.0, 0.0, 0.0, 1.7172380385379877E9, 0.0, 2024-06-01 03:33:58.537
142.0, 187500.0, -31792.428409150652, 187500.0, 187500.0, 187500.0, 187500.0, 187500.0, -91297.28720155802, 0.022, -0.022, 0.986, 192.0, 0.0, 0.0, 0.0, 0.0, 0.0, 0.0, 0.0, 0.0, 0.0, 1.7172380385379996E9, 0.0, 2024-06-01 03:33:58.537
143.0, 187500.0, -31806.442952924128, 187500.0, 187500.0, 187500.0, 187500.0, 187500.0, -91296.41548352427, 0.022, -0.022, 0.986, 192.0, 0.0, 0.0, 0.0, 0.0, 0.0, 0.0, 0.0, 0.0, 0.0, 1.7172380385380118E9, 0.0, 2024-06-01 03:33:58.538
144.0, 187500.0, -31813.036717538445, 187500.0, 187500.0, 187500.0, 187500.0, 187500.0, -91312.553443021, 0.022, -0.022, 0.986, 192.0, 0.0, 0.0, 0.0, 0.0, 0.0, 0.0, 0.0, 0.0, 0.0, 1.717238038538024E9, 0.0, 2024-06-01 03:33:58.538
145.0, 187500.0, -31800.072705754366, 187500.0, 187500.0, 187500.0, 187500.0, 187500.0, -91306.89845167381, 0.022, -0.022, 0.986, 192.0, 0.0, 0.0, 0.0, 0.0, 0.0, 0.0, 0.0, 0.0, 0.0, 1.717238038538036E9, 0.0, 2024-06-01 03:33:58.538
146.0, 187500.0, -31788.896833526713, 187500.0, 187500.0, 187500.0, 187500.0, 187500.0, -91299.43296902573, 0.022, -0.022, 0.986, 192.0, 0.0, 0.0, 0.0, 0.0, 0.0, 0.0, 0.0, 0.0, 0.0, 1.7172380385380588E9, 0.0, 2024-06-01 03:33:58.538
147.0, 187500.0, -31804.990089534534, 187500.0, 187500.0, 187500.0, 187500.0, 187500.0, -91312.06170464298, 0.022, -0.022, 0.986, 192.0, 0.0, 0.0, 0.0, 0.0, 0.0, 0.0, 0.0, 0.0, 0.0, 1.7172380385380712E9, 0.0, 2024-06-01 03:33:58.538
148.0, 187500.0, -31806.219435479576, 187500.0, 187500.0, 187500.0, 187500.0, 187500.0, -91326.63504202785, 0.022, -0.022, 0.986, 192.0, 0.0, 0.0, 0.0, 0.0, 0.0, 0.0, 0.0, 0.0, 0.0, 1.7172380385380836E9, 0.0, 2024-06-01 03:33:58.538
149.0, 187500.0, -31793.34483067332, 187500.0, 187500.0, 187500.0, 187500.0, 187500.0, -91322.18704488124, 0.022, -0.022, 0.986, 192.0, 0.0, 0.0, 0.0, 0.0, 0.0, 0.0, 0.0, 0.0, 0.0, 1.7172380385380957E9, 0.0, 2024-06-01 03:33:58.538
150.0, 187500.0, -31795.736467330036, 187500.0, 187500.0, 187500.0, 187500.0, 187500.0, -91308.48542553013, 0.026000000000000002, -0.02, 0.984, 192.0, 0.0, 208.0, 255.0, 96.0, 30.0, 192.0, 0.0, 0.0, 0.0, 1.7172380385381076E9, 0.0, 2024-06-01 03:33:58.538
151.0, 187500.0, -31798.195159220122, 187500.0, 187500.0, 187500.0, 187500.0, 187500.0, -91301.22110858216, 0.026000000000000002, -0.02, 0.984, 192.0, 0.0, 0.0, 0.0, 0.0, 0.0, 0.0, 0.0, 0.0, 0.0, 1.7172380385381205E9, 0.0, 2024-06-01 03:33:58.538
152.0, 187500.0, -31802.352583688807, 187500.0, 187500.0, 187500.0, 187500.0, 187500.0, -91311.81583545398, 0.026000000000000002, -0.02, 0.984, 192.0, 0.0, 0.0, 0.0, 0.0, 0.0, 0.0, 0.0, 0.0, 0.0, 1.717238038538136E9, 0.0, 2024-06-01 03:33:58.538
153.0, 187500.0, -31794.283603940443, 187500.0, 187500.0, 187500.0, 187500.0, 187500.0, -91316.24148085613, 0.026000000000000002, -0.02, 0.984, 192.0, 0.0, 0.0, 0.0, 0.0, 0.0, 0.0, 0.0, 0.0, 0.0, 1.7172380385381482E9, 0.0, 2024-06-01 03:33:58.538
154.0, 187500.0, -31785.365257902773, 187500.0, 187500.0, 187500.0, 187500.0, 187500.0, -91306.09378887342, 0.026000000000000002, -0.02, 0.984, 192.0, 0.0, 0.0, 0.0, 0.0, 0.0, 0.0, 0.0, 0.0, 0.0, 1.7172380385381603E9, 0.0, 2024-06-01 03:33:58.538
155.0, 187500.0, -31799.1562842317, 187500.0, 187500.0, 187500.0, 187500.0, 187500.0, -91304.01507663907, 0.026000000000000002, -0.02, 0.984, 192.0, 0.0, 0.0, 0.0, 0.0, 0.0, 0.0, 0.0, 0.0, 0.0, 1.7172380385381725E9, 0.0, 2024-06-01 03:33:58.538
156.0, 187500.0, -31803.49252265603, 187500.0, 187500.0, 187500.0, 187500.0, 187500.0, -91311.61466975388, 0.026000000000000002, -0.02, 0.984, 192.0, 0.0, 0.0, 0.0, 0.0, 0.0, 0.0, 0.0, 0.0, 0.0, 1.7172380385381846E9, 0.0, 2024-06-01 03:33:58.538
157.0, 187500.0, -31798.396324920217, 187500.0, 187500.0, 187500.0, 187500.0, 187500.0, -91310.92176567577, 0.026000000000000002, -0.02, 0.984, 192.0, 0.0, 0.0, 0.0, 0.0, 0.0, 0.0, 0.0, 0.0, 0.0, 1.7172380385381968E9, 0.0, 2024-06-01 03:33:58.538
158.0, 187500.0, -31799.737429587538, 187500.0, 187500.0, 187500.0, 187500.0, 187500.0, -91306.29495457352, 0.026000000000000002, -0.02, 0.984, 192.0, 0.0, 0.0, 0.0, 0.0, 0.0, 0.0, 0.0, 0.0, 0.0, 1.7172380385382087E9, 0.0, 2024-06-01 03:33:58.538
159.0, 187500.0, -31808.56636864738, 187500.0, 187500.0, 187500.0, 187500.0, 187500.0, -91303.83626268343, 0.026000000000000002, -0.02, 0.984, 192.0, 0.0, 0.0, 0.0, 0.0, 0.0, 0.0, 0.0, 0.0, 0.0, 1.717238038538221E9, 0.0, 2024-06-01 03:33:58.538
160.0, 187500.0, -31801.413810421684, 187500.0, 187500.0, 187500.0, 187500.0, 187500.0, -91304.12683536134, 0.024, -0.028, 0.982, 192.0, 0.0, 192.0, 255.0, 32.0, 30.0, 176.0, 0.0, 0.0, 0.0, 1.7172380385382333E9, 0.0, 2024-06-01 03:33:58.538
161.0, 187500.0, -31788.181577704145, 187500.0, 187500.0, 187500.0, 187500.0, 187500.0, -91313.62632675485, 0.024, -0.028, 0.982, 192.0, 0.0, 0.0, 0.0, 0.0, 0.0, 0.0, 0.0, 0.0, 0.0, 1.7172380385382564E9, 0.0, 2024-06-01 03:33:58.538
162.0, 187500.0, -31787.62278409276, 187500.0, 187500.0, 187500.0, 187500.0, 187500.0, -91323.39403908182, 0.024, -0.028, 0.982, 192.0, 0.0, 0.0, 0.0, 0.0, 0.0, 0.0, 0.0, 0.0, 0.0, 1.717238038538269E9, 0.0, 2024-06-01 03:33:58.538
163.0, 187500.0, -31804.900682556712, 187500.0, 187500.0, 187500.0, 187500.0, 187500.0, -91321.98587918114, 0.024, -0.028, 0.982, 192.0, 0.0, 0.0, 0.0, 0.0, 0.0, 0.0, 0.0, 0.0, 0.0, 1.7172380385382812E9, 0.0, 2024-06-01 03:33:58.538
164.0, 187500.0, -31814.556636161404, 187500.0, 187500.0, 187500.0, 187500.0, 187500.0, -91326.56798679447, 0.024, -0.028, 0.982, 192.0, 0.0, 0.0, 0.0, 0.0, 0.0, 0.0, 0.0, 0.0, 0.0, 1.7172380385382931E9, 0.0, 2024-06-01 03:33:58.538
165.0, 187500.0, -31795.848226052312, 187500.0, 187500.0, 187500.0, 187500.0, 187500.0, -91318.54371053503, 0.024, -0.028, 0.982, 192.0, 0.0, 0.0, 0.0, 0.0, 0.0, 0.0, 0.0, 0.0, 0.0, 1.7172380385383053E9, 0.0, 2024-06-01 03:33:58.538
166.0, 187500.0, -31787.555728859395, 187500.0, 187500.0, 187500.0, 187500.0, 187500.0, -91313.4475127992, 0.024, -0.028, 0.982, 192.0, 0.0, 0.0, 0.0, 0.0, 0.0, 0.0, 0.0, 0.0, 0.0, 1.7172380385383177E9, 0.0, 2024-06-01 03:33:58.538
167.0, 187500.0, -31798.15045573121, 187500.0, 187500.0, 187500.0, 187500.0, 187500.0, -91312.79931221, 0.024, -0.028, 0.982, 192.0, 0.0, 0.0, 0.0, 0.0, 0.0, 0.0, 0.0, 0.0, 0.0, 1.7172380385383296E9, 0.0, 2024-06-01 03:33:58.538
168.0, 187500.0, -31802.889025555734, 187500.0, 187500.0, 187500.0, 187500.0, 187500.0, -91314.72156223316, 0.024, -0.028, 0.982, 192.0, 0.0, 0.0, 0.0, 0.0, 0.0, 0.0, 0.0, 0.0, 0.0, 1.7172380385383418E9, 0.0, 2024-06-01 03:33:58.538
169.0, 187500.0, -31789.85795853829, 187500.0, 187500.0, 187500.0, 187500.0, 187500.0, -91309.6030127529, 0.024, -0.028, 0.982, 192.0, 0.0, 0.0, 0.0, 0.0, 0.0, 0.0, 0.0, 0.0, 0.0, 1.717238038538354E9, 0.0, 2024-06-01 03:33:58.538
170.0, 187500.0, -31782.034847978935, 187500.0, 187500.0, 187500.0, 187500.0, 187500.0, -91295.67787595725, 0.024, -0.026000000000000002, 0.986, 192.0, 0.0, 192.0, 255.0, 48.0, 30.0, 208.0, 0.0, 0.0, 0.0, 1.717238038538366E9, 0.0, 2024-06-01 03:33:58.538
171.0, 187500.0, -31792.71898182857, 187500.0, 187500.0, 187500.0, 187500.0, 187500.0, -91307.12196911837, 0.024, -0.026000000000000002, 0.986, 192.0, 0.0, 0.0, 0.0, 0.0, 0.0, 0.0, 0.0, 0.0, 0.0, 1.7172380385383787E9, 0.0, 2024-06-01 03:33:58.538
172.0, 187500.0, -31810.82389483737, 187500.0, 187500.0, 187500.0, 187500.0, 187500.0, -91321.71765824767, 0.024, -0.026000000000000002, 0.986, 192.0, 0.0, 0.0, 0.0, 0.0, 0.0, 0.0, 0.0, 0.0, 0.0, 1.7172380385383909E9, 0.0, 2024-06-01 03:33:58.538
173.0, 187500.0, -31805.951214546112, 187500.0, 187500.0, 187500.0, 187500.0, 187500.0, -91330.61365254088, 0.024, -0.026000000000000002, 0.986, 192.0, 0.0, 0.0, 0.0, 0.0, 0.0, 0.0, 0.0, 0.0, 0.0, 1.7172380385384052E9, 0.0, 2024-06-01 03:33:58.538
174.0, 187500.0, -31801.123237743766, 187500.0, 187500.0, 187500.0, 187500.0, 187500.0, -91335.10635317641, 0.024, -0.026000000000000002, 0.986, 192.0, 0.0, 0.0, 0.0, 0.0, 0.0, 0.0, 0.0, 0.0, 0.0, 1.7172380385384176E9, 0.0, 2024-06-01 03:33:58.538
175.0, 187500.0, -31803.112543000287, 187500.0, 187500.0, 187500.0, 187500.0, 187500.0, -91330.83716998545, 0.024, -0.026000000000000002, 0.986, 192.0, 0.0, 0.0, 0.0, 0.0, 0.0, 0.0, 0.0, 0.0, 0.0, 1.7172380385384295E9, 0.0, 2024-06-01 03:33:58.538
176.0, 187500.0, -31816.34477571783, 187500.0, 187500.0, 187500.0, 187500.0, 187500.0, -91327.39500133932, 0.024, -0.026000000000000002, 0.986, 192.0, 0.0, 0.0, 0.0, 0.0, 0.0, 0.0, 0.0, 0.0, 0.0, 1.7172380385384505E9, 0.0, 2024-06-01 03:33:58.538
177.0, 187500.0, -31809.303976214407, 187500.0, 187500.0, 187500.0, 187500.0, 187500.0, -91329.71958276267, 0.024, -0.026000000000000002, 0.986, 192.0, 0.0, 0.0, 0.0, 0.0, 0.0, 0.0, 0.0, 0.0, 0.0, 1.7172380385384629E9, 0.0, 2024-06-01 03:33:58.538
178.0, 187500.0, -31789.85795853829, 187500.0, 187500.0, 187500.0, 187500.0, 187500.0, -91327.84203622842, 0.024, -0.026000000000000002, 0.986, 192.0, 0.0, 0.0, 0.0, 0.0, 0.0, 0.0, 0.0, 0.0, 0.0, 1.7172380385384748E9, 0.0, 2024-06-01 03:33:58.538
179.0, 187500.0, -31788.29333642642, 187500.0, 187500.0, 187500.0, 187500.0, 187500.0, -91319.88481520234, 0.024, -0.026000000000000002, 0.986, 192.0, 0.0, 0.0, 0.0, 0.0, 0.0, 0.0, 0.0, 0.0, 0.0, 1.7172380385384934E9, 0.0, 2024-06-01 03:33:58.538
180.0, 187500.0, -31802.37493543326, 187500.0, 187500.0, 187500.0, 187500.0, 187500.0, -91319.9071669468, 0.022, -0.02, 0.984, 192.0, 0.0, 176.0, 255.0, 96.0, 30.0, 192.0, 0.0, 0.0, 0.0, 1.7172380385385144E9, 0.0, 2024-06-01 03:33:58.538
181.0, 187500.0, -31806.845284324325, 187500.0, 187500.0, 187500.0, 187500.0, 187500.0, -91326.14330364982, 0.022, -0.02, 0.984, 192.0, 0.0, 0.0, 0.0, 0.0, 0.0, 0.0, 0.0, 0.0, 0.0, 1.717238038538528E9, 0.0, 2024-06-01 03:33:58.538
182.0, 187500.0, -31795.44589465212, 187500.0, 187500.0, 187500.0, 187500.0, 187500.0, -91326.4562280722, 0.022, -0.02, 0.984, 192.0, 0.0, 0.0, 0.0, 0.0, 0.0, 0.0, 0.0, 0.0, 0.0, 1.7172380385385404E9, 0.0, 2024-06-01 03:33:58.538
183.0, 187500.0, -31791.690801583627, 187500.0, 187500.0, 187500.0, 187500.0, 187500.0, -91328.57964379546, 0.022, -0.02, 0.984, 192.0, 0.0, 0.0, 0.0, 0.0, 0.0, 0.0, 0.0, 0.0, 0.0, 1.7172380385385525E9, 0.0, 2024-06-01 03:33:58.538
184.0, 187500.0, -31797.9045865422, 187500.0, 187500.0, 187500.0, 187500.0, 187500.0, -91321.6506030143, 0.022, -0.02, 0.984, 192.0, 0.0, 0.0, 0.0, 0.0, 0.0, 0.0, 0.0, 0.0, 0.0, 1.7172380385385647E9, 0.0, 2024-06-01 03:33:58.538
185.0, 187500.0, -31802.710211600093, 187500.0, 187500.0, 187500.0, 187500.0, 187500.0, -91325.3609925939, 0.022, -0.02, 0.984, 192.0, 0.0, 0.0, 0.0, 0.0, 0.0, 0.0, 0.0, 0.0, 0.0, 1.7172380385385768E9, 0.0, 2024-06-01 03:33:58.538
186.0, 187500.0, -31792.808388806392, 187500.0, 187500.0, 187500.0, 187500.0, 187500.0, -91326.16565539427, 0.022, -0.02, 0.984, 192.0, 0.0, 0.0, 0.0, 0.0, 0.0, 0.0, 0.0, 0.0, 0.0, 1.7172380385385888E9, 0.0, 2024-06-01 03:33:58.538
187.0, 187500.0, -31789.746199816014, 187500.0, 187500.0, 187500.0, 187500.0, 187500.0, -91317.09084714543, 0.022, -0.02, 0.984, 192.0, 0.0, 0.0, 0.0, 0.0, 0.0, 0.0, 0.0, 0.0, 0.0, 1.7172380385386007E9, 0.0, 2024-06-01 03:33:58.538
188.0, 187500.0, -31795.82587430786, 187500.0, 187500.0, 187500.0, 187500.0, 187500.0, -91318.58841402394, 0.022, -0.02, 0.984, 192.0, 0.0, 0.0, 0.0, 0.0, 0.0, 0.0, 0.0, 0.0, 0.0, 1.717238038538613E9, 0.0, 2024-06-01 03:33:58.538
189.0, 187500.0, -31803.023136022468, 187500.0, 187500.0, 187500.0, 187500.0, 187500.0, -91325.62921352735, 0.02, -0.026000000000000002, 0.988, 192.0, 0.0, 160.0, 255.0, 48.0, 30.0, 224.0, 0.0, 0.0, 0.0, 1.7172380385386252E9, 0.0, 2024-06-01 03:33:58.538
190.0, 187500.0, -31799.33509818734, 187500.0, 187500.0, 187500.0, 187500.0, 187500.0, -91331.19479789672, 0.02, -0.026000000000000002, 0.988, 192.0, 0.0, 0.0, 0.0, 0.0, 0.0, 0.0, 0.0, 0.0, 0.0, 1.7172380385386379E9, 0.0, 2024-06-01 03:33:58.538
191.0, 187500.0, -31788.472150382062, 187500.0, 187500.0, 187500.0, 187500.0, 187500.0, -91328.28907111754, 0.02, -0.026000000000000002, 0.988, 192.0, 0.0, 0.0, 0.0, 0.0, 0.0, 0.0, 0.0, 0.0, 0.0, 1.71723803853866E9, 0.0, 2024-06-01 03:33:58.538
192.0, 187500.0, -31788.159225959687, 187500.0, 187500.0, 187500.0, 187500.0, 187500.0, -91320.08598090244, 0.02, -0.026000000000000002, 0.988, 192.0, 0.0, 0.0, 0.0, 0.0, 0.0, 0.0, 0.0, 0.0, 0.0, 1.7172380385386724E9, 0.0, 2024-06-01 03:33:58.538
193.0, 187500.0, -31798.195159220122, 187500.0, 187500.0, 187500.0, 187500.0, 187500.0, -91315.23565235564, 0.02, -0.026000000000000002, 0.988, 192.0, 0.0, 0.0, 0.0, 0.0, 0.0, 0.0, 0.0, 0.0, 0.0, 1.7172380385386844E9, 0.0, 2024-06-01 03:33:58.538
194.0, 187500.0, -31781.364295645275, 187500.0, 187500.0, 187500.0, 187500.0, 187500.0, -91316.68851574523, 0.02, -0.026000000000000002, 0.988, 192.0, 0.0, 0.0, 0.0, 0.0, 0.0, 0.0, 0.0, 0.0, 0.0, 1.7172380385386992E9, 0.0, 2024-06-01 03:33:58.538
195.0, 187500.0, -31766.567440815863, 187500.0, 187500.0, 187500.0, 187500.0, 187500.0, -91316.86732970088, 0.02, -0.026000000000000002, 0.988, 192.0, 0.0, 0.0, 0.0, 0.0, 0.0, 0.0, 0.0, 0.0, 0.0, 1.7172380385387113E9, 0.0, 2024-06-01 03:33:58.538
196.0, 187500.0, -31787.86865328177, 187500.0, 187500.0, 187500.0, 187500.0, 187500.0, -91327.81968448397, 0.02, -0.026000000000000002, 0.988, 192.0, 0.0, 0.0, 0.0, 0.0, 0.0, 0.0, 0.0, 0.0, 0.0, 1.7172380385387237E9, 0.0, 2024-06-01 03:33:58.538
197.0, 187500.0, -31811.87442682677, 187500.0, 187500.0, 187500.0, 187500.0, 187500.0, -91335.10635317641, 0.02, -0.026000000000000002, 0.988, 192.0, 0.0, 0.0, 0.0, 0.0, 0.0, 0.0, 0.0, 0.0, 0.0, 1.7172380385387356E9, 0.0, 2024-06-01 03:33:58.538
198.0, 187500.0, -31799.133932487242, 187500.0, 187500.0, 187500.0, 187500.0, 187500.0, -91329.31725136247, 0.02, -0.026000000000000002, 0.988, 192.0, 0.0, 0.0, 0.0, 0.0, 0.0, 0.0, 0.0, 0.0, 0.0, 1.717238038538748E9, 0.0, 2024-06-01 03:33:58.538
199.0, 187500.0, -31776.312801398373, 187500.0, 187500.0, 187500.0, 187500.0, 187500.0, -91315.45916980019, 0.018000000000000002, -0.02, 0.988, 192.0, 0.0, 144.0, 255.0, 96.0, 30.0, 224.0, 0.0, 0.0, 0.0, 1.71723803853876E9, 0.0, 2024-06-01 03:33:58.538
200.0, 187500.0, -31769.51787108396, 187500.0, 187500.0, 187500.0, 187500.0, 187500.0, -91303.14335860532, 0.018000000000000002, -0.02, 0.988, 192.0, 0.0, 0.0, 0.0, 0.0, 0.0, 0.0, 0.0, 0.0, 0.0, 1.7172380385387728E9, 0.0, 2024-06-01 03:33:58.538
201.0, 187500.0, -31778.01153397698, 187500.0, 187500.0, 187500.0, 187500.0, 187500.0, -91298.40478878078, 0.018000000000000002, -0.02, 0.988, 192.0, 0.0, 0.0, 0.0, 0.0, 0.0, 0.0, 0.0, 0.0, 0.0, 1.7172380385387847E9, 0.0, 2024-06-01 03:33:58.538
202.0, 187500.0, -31772.80357751889, 187500.0, 187500.0, 187500.0, 187500.0, 187500.0, -91297.89069865832, 0.018000000000000002, -0.02, 0.988, 192.0, 0.0, 0.0, 0.0, 0.0, 0.0, 0.0, 0.0, 0.0, 0.0, 1.717238038538797E9, 0.0, 2024-06-01 03:33:58.538
203.0, 187500.0, -31764.555783814885, 187500.0, 187500.0, 187500.0, 187500.0, 187500.0, -91303.16571034977, 0.018000000000000002, -0.02, 0.988, 192.0, 0.0, 0.0, 0.0, 0.0, 0.0, 0.0, 0.0, 0.0, 0.0, 1.7172380385388088E9, 0.0, 2024-06-01 03:33:58.538
204.0, 187500.0, -31763.81817624786, 187500.0, 187500.0, 187500.0, 187500.0, 187500.0, -91300.30468705948, 0.018000000000000002, -0.02, 0.988, 192.0, 0.0, 0.0, 0.0, 0.0, 0.0, 0.0, 0.0, 0.0, 0.0, 1.7172380385388207E9, 0.0, 2024-06-01 03:33:58.538
205.0, 187500.0, -31764.868708237256, 187500.0, 187500.0, 187500.0, 187500.0, 187500.0, -91290.13464333232, 0.018000000000000002, -0.02, 0.988, 192.0, 0.0, 0.0, 0.0, 0.0, 0.0, 0.0, 0.0, 0.0, 0.0, 1.717238038538833E9, 0.0, 2024-06-01 03:33:58.538
206.0, 187500.0, -31763.862879736767, 187500.0, 187500.0, 187500.0, 187500.0, 187500.0, -91301.86930917136, 0.018000000000000002, -0.02, 0.988, 192.0, 0.0, 0.0, 0.0, 0.0, 0.0, 0.0, 0.0, 0.0, 0.0, 1.7172380385388532E9, 0.0, 2024-06-01 03:33:58.538
207.0, 187500.0, -31757.939667456114, 187500.0, 187500.0, 187500.0, 187500.0, 187500.0, -91304.66327722828, 0.018000000000000002, -0.02, 0.988, 192.0, 0.0, 0.0, 0.0, 0.0, 0.0, 0.0, 0.0, 0.0, 0.0, 1.717238038538865E9, 0.0, 2024-06-01 03:33:58.538
208.0, 187500.0, -31746.070891150346, 187500.0, 187500.0, 187500.0, 187500.0, 187500.0, -91286.80423340849, 0.018000000000000002, -0.02, 0.988, 192.0, 0.0, 0.0, 0.0, 0.0, 0.0, 0.0, 0.0, 0.0, 0.0, 1.7172380385388772E9, 0.0, 2024-06-01 03:33:58.538
209.0, 187500.0, -31742.405205059673, 187500.0, 187500.0, 187500.0, 187500.0, 187500.0, -91276.43302398123, 0.018000000000000002, -0.024, 0.988, 192.0, 0.0, 144.0, 255.0, 64.0, 30.0, 224.0, 0.0, 0.0, 0.0, 1.7172380385388892E9, 0.0, 2024-06-01 03:33:58.538
210.0, 187500.0, -31744.439213805108, 187500.0, 187500.0, 187500.0, 187500.0, 187500.0, -91279.45050948269, 0.018000000000000002, -0.024, 0.988, 192.0, 0.0, 0.0, 0.0, 0.0, 0.0, 0.0, 0.0, 0.0, 0.0, 1.7172380385389018E9, 0.0, 2024-06-01 03:33:58.538
211.0, 187500.0, -31738.359539313264, 187500.0, 187500.0, 187500.0, 187500.0, 187500.0, -91281.57392520594, 0.018000000000000002, -0.024, 0.988, 192.0, 0.0, 0.0, 0.0, 0.0, 0.0, 0.0, 0.0, 0.0, 0.0, 1.717238038538914E9, 0.0, 2024-06-01 03:33:58.538
212.0, 187500.0, -31724.546161239883, 187500.0, 187500.0, 187500.0, 187500.0, 187500.0, -91269.63809366681, 0.018000000000000002, -0.024, 0.988, 192.0, 0.0, 0.0, 0.0, 0.0, 0.0, 0.0, 0.0, 0.0, 0.0, 1.717238038538926E9, 0.0, 2024-06-01 03:33:58.538
213.0, 187500.0, -31736.012606145458, 187500.0, 187500.0, 187500.0, 187500.0, 187500.0, -91270.88979135631, 0.018000000000000002, -0.024, 0.988, 192.0, 0.0, 0.0, 0.0, 0.0, 0.0, 0.0, 0.0, 0.0, 0.0, 1.717238038538938E9, 0.0, 2024-06-01 03:33:58.538
214.0, 187500.0, -31738.9406846691, 187500.0, 187500.0, 187500.0, 187500.0, 187500.0, -91269.28046575552, 0.018000000000000002, -0.024, 0.988, 192.0, 0.0, 0.0, 0.0, 0.0, 0.0, 0.0, 0.0, 0.0, 0.0, 1.71723803853895E9, 0.0, 2024-06-01 03:33:58.538
215.0, 187500.0, -31732.36927179924, 187500.0, 187500.0, 187500.0, 187500.0, 187500.0, -91267.08999479891, 0.018000000000000002, -0.024, 0.988, 192.0, 0.0, 0.0, 0.0, 0.0, 0.0, 0.0, 0.0, 0.0, 0.0, 1.717238038538962E9, 0.0, 2024-06-01 03:33:58.538
216.0, 187500.0, -31724.456754262064, 187500.0, 187500.0, 187500.0, 187500.0, 187500.0, -91266.75471863207, 0.018000000000000002, -0.024, 0.988, 192.0, 0.0, 0.0, 0.0, 0.0, 0.0, 0.0, 0.0, 0.0, 0.0, 1.7172380385389757E9, 0.0, 2024-06-01 03:33:58.538
217.0, 187500.0, -31725.663748462648, 187500.0, 187500.0, 187500.0, 187500.0, 187500.0, -91268.81107912197, 0.018000000000000002, -0.024, 0.988, 192.0, 0.0, 0.0, 0.0, 0.0, 0.0, 0.0, 0.0, 0.0, 0.0, 1.7172380385389879E9, 0.0, 2024-06-01 03:33:58.538
218.0, 187500.0, -31732.726899710528, 187500.0, 187500.0, 187500.0, 187500.0, 187500.0, -91272.58852393492, 0.018000000000000002, -0.024, 0.988, 192.0, 0.0, 0.0, 0.0, 0.0, 0.0, 0.0, 0.0, 0.0, 0.0, 1.7172380385390077E9, 0.0, 2024-06-01 03:33:58.539
219.0, 187500.0, -31729.105917108765, 187500.0, 187500.0, 187500.0, 187500.0, 187500.0, -91274.39901523579, 0.018000000000000002, -0.02, 0.98, 192.0, 0.0, 144.0, 255.0, 96.0, 30.0, 160.0, 0.0, 0.0, 0.0, 1.7172380385390203E9, 0.0, 2024-06-01 03:33:58.539
220.0, 187500.0, -31715.94073962459, 187500.0, 187500.0, 187500.0, 187500.0, 187500.0, -91272.25324776808, 0.018000000000000002, -0.02, 0.98, 192.0, 0.0, 0.0, 0.0, 0.0, 0.0, 0.0, 0.0, 0.0, 0.0, 1.717238038539033E9, 0.0, 2024-06-01 03:33:58.539
0.0, 0.0, 0.0, 0.0, 0.0, 0.0, 0.0, 0.0, 0.0, 0.022, -0.024, 0.978, 192.0, 0.0, 176.0, 255.0, 64.0, 30.0, 144.0, 0.0, 0.0, 0.0, 1.7172380386398597E9, 0.0, 2024-06-01 03:33:58.639
1.0, 187500.0, -31441.438965968966, 187500.0, 187500.0, 187500.0, 187500.0, 187500.0, -91247.8898463118, 0.022, -0.024, 0.978, 192.0, 0.0, 0.0, 0.0, 0.0, 0.0, 0.0, 0.0, 0.0, 0.0, 1.717238038655929E9, 0.0, 2024-06-01 03:33:58.655
2.0, 187500.0, -31458.873326644105, 187500.0, 187500.0, 187500.0, 187500.0, 187500.0, -91259.82567785092, 0.022, -0.024, 0.978, 192.0, 0.0, 0.0, 0.0, 0.0, 0.0, 0.0, 0.0, 0.0, 0.0, 1.717238039135158E9, 0.0, 2024-06-01 03:33:59.135
3.0, 187500.0, -31472.686704717486, 187500.0, 187500.0, 187500.0, 187500.0, 187500.0, -91281.77509090604, 0.022, -0.024, 0.978, 192.0, 0.0, 0.0, 0.0, 0.0, 0.0, 0.0, 0.0, 0.0, 0.0, 1.7172380391352127E9, 0.0, 2024-06-01 03:33:59.135
4.0, 187500.0, -31457.68868418797, 187500.0, 187500.0, 187500.0, 187500.0, 187500.0, -91280.29987577199, 0.022, -0.024, 0.978, 192.0, 0.0, 0.0, 0.0, 0.0, 0.0, 0.0, 0.0, 0.0, 0.0, 1.7172380391352403E9, 0.0, 2024-06-01 03:33:59.135
5.0, 187500.0, -31458.918030133016, 187500.0, 187500.0, 187500.0, 187500.0, 187500.0, -91280.41163449427, 0.022, -0.024, 0.978, 192.0, 0.0, 0.0, 0.0, 0.0, 0.0, 0.0, 0.0, 0.0, 0.0, 1.717238039135267E9, 0.0, 2024-06-01 03:33:59.135
6.0, 187500.0, -31465.26592555832, 187500.0, 187500.0, 187500.0, 187500.0, 187500.0, -91278.08705307092, 0.022, -0.024, 0.978, 192.0, 0.0, 0.0, 0.0, 0.0, 0.0, 0.0, 0.0, 0.0, 0.0, 1.7172380391352935E9, 0.0, 2024-06-01 03:33:59.135
7.0, 187500.0, -31474.854823929647, 187500.0, 187500.0, 187500.0, 187500.0, 187500.0, -91288.301800287, 0.022, -0.024, 0.978, 192.0, 0.0, 0.0, 0.0, 0.0, 0.0, 0.0, 0.0, 0.0, 0.0, 1.7172380391353168E9, 0.0, 2024-06-01 03:33:59.135
8.0, 187500.0, -31470.60799248314, 187500.0, 187500.0, 187500.0, 187500.0, 187500.0, -91290.22405031015, 0.022, -0.026000000000000002, 0.98, 192.0, 0.0, 176.0, 255.0, 48.0, 30.0, 160.0, 0.0, 0.0, 0.0, 1.71723803913534E9, 0.0, 2024-06-01 03:33:59.135
9.0, 187500.0, -31462.40490226804, 187500.0, 187500.0, 187500.0, 187500.0, 187500.0, -91281.10453857238, 0.022, -0.026000000000000002, 0.98, 192.0, 0.0, 0.0, 0.0, 0.0, 0.0, 0.0, 0.0, 0.0, 0.0, 1.7172380391353672E9, 0.0, 2024-06-01 03:33:59.135
10.0, 187500.0, -31467.009361625835, 187500.0, 187500.0, 187500.0, 187500.0, 187500.0, -91276.94711410369, 0.022, -0.026000000000000002, 0.98, 192.0, 0.0, 0.0, 0.0, 0.0, 0.0, 0.0, 0.0, 0.0, 0.0, 1.7172380391353796E9, 0.0, 2024-06-01 03:33:59.135
11.0, 187500.0, -31464.95300113595, 187500.0, 187500.0, 187500.0, 187500.0, 187500.0, -91272.67793091273, 0.022, -0.026000000000000002, 0.98, 192.0, 0.0, 0.0, 0.0, 0.0, 0.0, 0.0, 0.0, 0.0, 0.0, 1.717238039135392E9, 0.0, 2024-06-01 03:33:59.135
12.0, 187500.0, -31455.31939927571, 187500.0, 187500.0, 187500.0, 187500.0, 187500.0, -91274.0413873245, 0.022, -0.026000000000000002, 0.98, 192.0, 0.0, 0.0, 0.0, 0.0, 0.0, 0.0, 0.0, 0.0, 0.0, 1.7172380391354043E9, 0.0, 2024-06-01 03:33:59.135
13.0, 187500.0, -31454.626495197597, 187500.0, 187500.0, 187500.0, 187500.0, 187500.0, -91284.83727989641, 0.022, -0.026000000000000002, 0.98, 192.0, 0.0, 0.0, 0.0, 0.0, 0.0, 0.0, 0.0, 0.0, 0.0, 1.7172380391354165E9, 0.0, 2024-06-01 03:33:59.135
14.0, 187500.0, -31467.12112034811, 187500.0, 187500.0, 187500.0, 187500.0, 187500.0, -91291.36398927736, 0.022, -0.026000000000000002, 0.98, 192.0, 0.0, 0.0, 0.0, 0.0, 0.0, 0.0, 0.0, 0.0, 0.0, 1.7172380391354284E9, 0.0, 2024-06-01 03:33:59.135
15.0, 187500.0, -31473.245498328866, 187500.0, 187500.0, 187500.0, 187500.0, 187500.0, -91284.90433512979, 0.022, -0.026000000000000002, 0.98, 192.0, 0.0, 0.0, 0.0, 0.0, 0.0, 0.0, 0.0, 0.0, 0.0, 1.7172380391354403E9, 0.0, 2024-06-01 03:33:59.135
16.0, 187500.0, -31460.594410967162, 187500.0, 187500.0, 187500.0, 187500.0, 187500.0, -91282.8926781288, 0.022, -0.026000000000000002, 0.98, 192.0, 0.0, 0.0, 0.0, 0.0, 0.0, 0.0, 0.0, 0.0, 0.0, 1.717238039135512E9, 0.0, 2024-06-01 03:33:59.135
17.0, 187500.0, -31457.867498143616, 187500.0, 187500.0, 187500.0, 187500.0, 187500.0, -91283.6973409292, 0.026000000000000002, -0.026000000000000002, 0.982, 192.0, 0.0, 208.0, 255.0, 48.0, 30.0, 176.0, 0.0, 0.0, 0.0, 1.7172380391355245E9, 0.0, 2024-06-01 03:33:59.135
18.0, 187500.0, -31462.784881923784, 187500.0, 187500.0, 187500.0, 187500.0, 187500.0, -91278.17646004874, 0.026000000000000002, -0.026000000000000002, 0.982, 192.0, 0.0, 0.0, 0.0, 0.0, 0.0, 0.0, 0.0, 0.0, 0.0, 1.7172380391355371E9, 0.0, 2024-06-01 03:33:59.135
19.0, 187500.0, -31472.105559361647, 187500.0, 187500.0, 187500.0, 187500.0, 187500.0, -91277.68472167072, 0.026000000000000002, -0.026000000000000002, 0.982, 192.0, 0.0, 0.0, 0.0, 0.0, 0.0, 0.0, 0.0, 0.0, 0.0, 1.7172380391355493E9, 0.0, 2024-06-01 03:33:59.135
20.0, 187500.0, -31470.205661082946, 187500.0, 187500.0, 187500.0, 187500.0, 187500.0, -91287.9441723757, 0.026000000000000002, -0.026000000000000002, 0.982, 192.0, 0.0, 0.0, 0.0, 0.0, 0.0, 0.0, 0.0, 0.0, 0.0, 1.7172380391355615E9, 0.0, 2024-06-01 03:33:59.135
21.0, 187500.0, -31467.769320937317, 187500.0, 187500.0, 187500.0, 187500.0, 187500.0, -91291.47574799965, 0.026000000000000002, -0.026000000000000002, 0.982, 192.0, 0.0, 0.0, 0.0, 0.0, 0.0, 0.0, 0.0, 0.0, 0.0, 1.7172380391355736E9, 0.0, 2024-06-01 03:33:59.135
22.0, 187500.0, -31465.288277302778, 187500.0, 187500.0, 187500.0, 187500.0, 187500.0, -91285.82075665245, 0.026000000000000002, -0.026000000000000002, 0.982, 192.0, 0.0, 0.0, 0.0, 0.0, 0.0, 0.0, 0.0, 0.0, 0.0, 1.7172380391355855E9, 0.0, 2024-06-01 03:33:59.135
23.0, 187500.0, -31471.770283194815, 187500.0, 187500.0, 187500.0, 187500.0, 187500.0, -91283.4961752291, 0.026000000000000002, -0.026000000000000002, 0.982, 192.0, 0.0, 0.0, 0.0, 0.0, 0.0, 0.0, 0.0, 0.0, 0.0, 1.7172380391355977E9, 0.0, 2024-06-01 03:33:59.135
24.0, 187500.0, -31476.106521619145, 187500.0, 187500.0, 187500.0, 187500.0, 187500.0, -91291.87807939984, 0.026000000000000002, -0.026000000000000002, 0.982, 192.0, 0.0, 0.0, 0.0, 0.0, 0.0, 0.0, 0.0, 0.0, 0.0, 1.71723803913561E9, 0.0, 2024-06-01 03:33:59.135
25.0, 187500.0, -31466.249402314355, 187500.0, 187500.0, 187500.0, 187500.0, 187500.0, -91287.36302701986, 0.026000000000000002, -0.026000000000000002, 0.982, 192.0, 0.0, 0.0, 0.0, 0.0, 0.0, 0.0, 0.0, 0.0, 0.0, 1.717238039135622E9, 0.0, 2024-06-01 03:33:59.135
26.0, 187500.0, -31462.293143545765, 187500.0, 187500.0, 187500.0, 187500.0, 187500.0, -91273.28142801303, 0.026000000000000002, -0.026000000000000002, 0.982, 192.0, 0.0, 0.0, 0.0, 0.0, 0.0, 0.0, 0.0, 0.0, 0.0, 1.717238039135634E9, 0.0, 2024-06-01 03:33:59.135
27.0, 187500.0, -31467.74696919286, 187500.0, 187500.0, 187500.0, 187500.0, 187500.0, -91273.3931867353, 0.022, -0.02, 0.982, 192.0, 0.0, 176.0, 255.0, 96.0, 30.0, 176.0, 0.0, 0.0, 0.0, 1.717238039135646E9, 0.0, 2024-06-01 03:33:59.135
28.0, 187500.0, -31468.283411059787, 187500.0, 187500.0, 187500.0, 187500.0, 187500.0, -91281.86449788386, 0.022, -0.02, 0.982, 192.0, 0.0, 0.0, 0.0, 0.0, 0.0, 0.0, 0.0, 0.0, 0.0, 1.7172380391356585E9, 0.0, 2024-06-01 03:33:59.135
29.0, 187500.0, -31458.873326644105, 187500.0, 187500.0, 187500.0, 187500.0, 187500.0, -91282.66916068425, 0.022, -0.02, 0.982, 192.0, 0.0, 0.0, 0.0, 0.0, 0.0, 0.0, 0.0, 0.0, 0.0, 1.7172380391356707E9, 0.0, 2024-06-01 03:33:59.135
30.0, 187500.0, -31453.486556230375, 187500.0, 187500.0, 187500.0, 187500.0, 187500.0, -91277.68472167072, 0.022, -0.02, 0.982, 192.0, 0.0, 0.0, 0.0, 0.0, 0.0, 0.0, 0.0, 0.0, 0.0, 1.7172380391356828E9, 0.0, 2024-06-01 03:33:59.135
31.0, 187500.0, -31463.4777860019, 187500.0, 187500.0, 187500.0, 187500.0, 187500.0, -91281.90920137278, 0.022, -0.02, 0.982, 192.0, 0.0, 0.0, 0.0, 0.0, 0.0, 0.0, 0.0, 0.0, 0.0, 1.7172380391357052E9, 0.0, 2024-06-01 03:33:59.135
32.0, 187500.0, -31475.99476289687, 187500.0, 187500.0, 187500.0, 187500.0, 187500.0, -91293.10742534488, 0.022, -0.02, 0.982, 192.0, 0.0, 0.0, 0.0, 0.0, 0.0, 0.0, 0.0, 0.0, 0.0, 1.7172380391357176E9, 0.0, 2024-06-01 03:33:59.135
33.0, 187500.0, -31466.80819592574, 187500.0, 187500.0, 187500.0, 187500.0, 187500.0, -91291.43104451074, 0.022, -0.02, 0.982, 192.0, 0.0, 0.0, 0.0, 0.0, 0.0, 0.0, 0.0, 0.0, 0.0, 1.7172380391357296E9, 0.0, 2024-06-01 03:33:59.135
34.0, 187500.0, -31456.615800454118, 187500.0, 187500.0, 187500.0, 187500.0, 187500.0, -91283.85380314039, 0.022, -0.02, 0.982, 192.0, 0.0, 0.0, 0.0, 0.0, 0.0, 0.0, 0.0, 0.0, 0.0, 1.7172380391357417E9, 0.0, 2024-06-01 03:33:59.135
35.0, 187500.0, -31464.75183543585, 187500.0, 187500.0, 187500.0, 187500.0, 187500.0, -91285.50783223008, 0.022, -0.02, 0.982, 192.0, 0.0, 0.0, 0.0, 0.0, 0.0, 0.0, 0.0, 0.0, 0.0, 1.7172380391357536E9, 0.0, 2024-06-01 03:33:59.135
36.0, 187500.0, -31470.295068060765, 187500.0, 187500.0, 187500.0, 187500.0, 187500.0, -91276.45537572568, 0.022, -0.02, 0.982, 192.0, 0.0, 0.0, 0.0, 0.0, 0.0, 0.0, 0.0, 0.0, 0.0, 1.717238039135766E9, 0.0, 2024-06-01 03:33:59.135
37.0, 187500.0, -31464.148338335555, 187500.0, 187500.0, 187500.0, 187500.0, 187500.0, -91283.36206476236, 0.016, -0.022, 0.984, 192.0, 0.0, 128.0, 255.0, 80.0, 30.0, 192.0, 0.0, 0.0, 0.0, 1.7172380391357782E9, 0.0, 2024-06-01 03:33:59.135
38.0, 187500.0, -31451.899582374048, 187500.0, 187500.0, 187500.0, 187500.0, 187500.0, -91284.77022466305, 0.016, -0.022, 0.984, 192.0, 0.0, 0.0, 0.0, 0.0, 0.0, 0.0, 0.0, 0.0, 0.0, 1.7172380391357908E9, 0.0, 2024-06-01 03:33:59.135
39.0, 187500.0, -31449.55264920624, 187500.0, 187500.0, 187500.0, 187500.0, 187500.0, -91270.30864600047, 0.016, -0.022, 0.984, 192.0, 0.0, 0.0, 0.0, 0.0, 0.0, 0.0, 0.0, 0.0, 0.0, 1.7172380391358025E9, 0.0, 2024-06-01 03:33:59.135
40.0, 187500.0, -31456.50404173184, 187500.0, 187500.0, 187500.0, 187500.0, 187500.0, -91273.05791056847, 0.016, -0.022, 0.984, 192.0, 0.0, 0.0, 0.0, 0.0, 0.0, 0.0, 0.0, 0.0, 0.0, 1.717238039135815E9, 0.0, 2024-06-01 03:33:59.135
41.0, 187500.0, -31454.335922519676, 187500.0, 187500.0, 187500.0, 187500.0, 187500.0, -91280.70220717219, 0.016, -0.022, 0.984, 192.0, 0.0, 0.0, 0.0, 0.0, 0.0, 0.0, 0.0, 0.0, 0.0, 1.7172380391358266E9, 0.0, 2024-06-01 03:33:59.135
42.0, 187500.0, -31440.991931079858, 187500.0, 187500.0, 187500.0, 187500.0, 187500.0, -91273.99668383559, 0.016, -0.022, 0.984, 192.0, 0.0, 0.0, 0.0, 0.0, 0.0, 0.0, 0.0, 0.0, 0.0, 1.7172380391358385E9, 0.0, 2024-06-01 03:33:59.135
43.0, 187500.0, -31455.565268464718, 187500.0, 187500.0, 187500.0, 187500.0, 187500.0, -91276.90241061478, 0.016, -0.022, 0.984, 192.0, 0.0, 0.0, 0.0, 0.0, 0.0, 0.0, 0.0, 0.0, 0.0, 1.7172380391358504E9, 0.0, 2024-06-01 03:33:59.135
44.0, 187500.0, -31461.577887723197, 187500.0, 187500.0, 187500.0, 187500.0, 187500.0, -91282.78091940653, 0.016, -0.022, 0.984, 192.0, 0.0, 0.0, 0.0, 0.0, 0.0, 0.0, 0.0, 0.0, 0.0, 1.717238039135862E9, 0.0, 2024-06-01 03:33:59.135
45.0, 187500.0, -31450.960809106924, 187500.0, 187500.0, 187500.0, 187500.0, 187500.0, -91283.7420444181, 0.016, -0.022, 0.984, 192.0, 0.0, 0.0, 0.0, 0.0, 0.0, 0.0, 0.0, 0.0, 0.0, 1.7172380391358743E9, 0.0, 2024-06-01 03:33:59.135
46.0, 187500.0, -31446.915143360515, 187500.0, 187500.0, 187500.0, 187500.0, 187500.0, -91274.93545710272, 0.016, -0.022, 0.984, 192.0, 0.0, 0.0, 0.0, 0.0, 0.0, 0.0, 0.0, 0.0, 0.0, 1.717238039135896E9, 0.0, 2024-06-01 03:33:59.135
47.0, 187500.0, -31453.575963208197, 187500.0, 187500.0, 187500.0, 187500.0, 187500.0, -91274.28725651352, 0.018000000000000002, -0.02, 0.984, 192.0, 0.0, 144.0, 255.0, 96.0, 30.0, 192.0, 0.0, 0.0, 0.0, 1.717238039135908E9, 0.0, 2024-06-01 03:33:59.135
48.0, 187500.0, -31460.572059222708, 187500.0, 187500.0, 187500.0, 187500.0, 187500.0, -91276.90241061478, 0.018000000000000002, -0.02, 0.984, 192.0, 0.0, 0.0, 0.0, 0.0, 0.0, 0.0, 0.0, 0.0, 0.0, 1.7172380391359205E9, 0.0, 2024-06-01 03:33:59.135
49.0, 187500.0, -31458.918030133016, 187500.0, 187500.0, 187500.0, 187500.0, 187500.0, -91282.40093975079, 0.018000000000000002, -0.02, 0.984, 192.0, 0.0, 0.0, 0.0, 0.0, 0.0, 0.0, 0.0, 0.0, 0.0, 1.7172380391359324E9, 0.0, 2024-06-01 03:33:59.135
50.0, 187500.0, -31452.659541685527, 187500.0, 187500.0, 187500.0, 187500.0, 187500.0, -91282.93738161771, 0.018000000000000002, -0.02, 0.984, 192.0, 0.0, 0.0, 0.0, 0.0, 0.0, 0.0, 0.0, 0.0, 0.0, 1.7172380391359444E9, 0.0, 2024-06-01 03:33:59.135
51.0, 187500.0, -31450.89375387356, 187500.0, 187500.0, 187500.0, 187500.0, 187500.0, -91280.43398623873, 0.018000000000000002, -0.02, 0.984, 192.0, 0.0, 0.0, 0.0, 0.0, 0.0, 0.0, 0.0, 0.0, 0.0, 1.7172380391359563E9, 0.0, 2024-06-01 03:33:59.135
52.0, 187500.0, -31452.525431218797, 187500.0, 187500.0, 187500.0, 187500.0, 187500.0, -91276.88005887033, 0.018000000000000002, -0.02, 0.984, 192.0, 0.0, 0.0, 0.0, 0.0, 0.0, 0.0, 0.0, 0.0, 0.0, 1.7172380391359687E9, 0.0, 2024-06-01 03:33:59.135
53.0, 187500.0, -31455.587620209175, 187500.0, 187500.0, 187500.0, 187500.0, 187500.0, -91283.83145139593, 0.018000000000000002, -0.02, 0.984, 192.0, 0.0, 0.0, 0.0, 0.0, 0.0, 0.0, 0.0, 0.0, 0.0, 1.7172380391359806E9, 0.0, 2024-06-01 03:33:59.135
54.0, 187500.0, -31449.03855908377, 187500.0, 187500.0, 187500.0, 187500.0, 187500.0, -91284.45730024068, 0.018000000000000002, -0.02, 0.984, 192.0, 0.0, 0.0, 0.0, 0.0, 0.0, 0.0, 0.0, 0.0, 0.0, 1.7172380391359923E9, 0.0, 2024-06-01 03:33:59.135
55.0, 187500.0, -31444.54585844825, 187500.0, 187500.0, 187500.0, 187500.0, 187500.0, -91273.08026231293, 0.018000000000000002, -0.02, 0.984, 192.0, 0.0, 0.0, 0.0, 0.0, 0.0, 0.0, 0.0, 0.0, 0.0, 1.7172380391360044E9, 0.0, 2024-06-01 03:33:59.136
56.0, 187500.0, -31455.31939927571, 187500.0, 187500.0, 187500.0, 187500.0, 187500.0, -91264.29602674198, 0.018000000000000002, -0.02, 0.984, 192.0, 0.0, 0.0, 0.0, 0.0, 0.0, 0.0, 0.0, 0.0, 0.0, 1.7172380391360164E9, 0.0, 2024-06-01 03:33:59.136
57.0, 187500.0, -31459.387416766574, 187500.0, 187500.0, 187500.0, 187500.0, 187500.0, -91270.84508786739, 0.018000000000000002, -0.018000000000000002, 0.982, 192.0, 0.0, 144.0, 255.0, 112.0, 30.0, 176.0, 0.0, 0.0, 0.0, 1.7172380391360283E9, 0.0, 2024-06-01 03:33:59.136
58.0, 187500.0, -31455.297047531254, 187500.0, 187500.0, 187500.0, 187500.0, 187500.0, -91283.58558220693, 0.018000000000000002, -0.018000000000000002, 0.982, 192.0, 0.0, 0.0, 0.0, 0.0, 0.0, 0.0, 0.0, 0.0, 0.0, 1.7172380391360407E9, 0.0, 2024-06-01 03:33:59.136
59.0, 187500.0, -31457.599277210153, 187500.0, 187500.0, 187500.0, 187500.0, 187500.0, -91280.5904484499, 0.018000000000000002, -0.018000000000000002, 0.982, 192.0, 0.0, 0.0, 0.0, 0.0, 0.0, 0.0, 0.0, 0.0, 0.0, 1.7172380391360528E9, 0.0, 2024-06-01 03:33:59.136
60.0, 187500.0, -31456.45933824293, 187500.0, 187500.0, 187500.0, 187500.0, 187500.0, -91283.0938438289, 0.018000000000000002, -0.018000000000000002, 0.982, 192.0, 0.0, 0.0, 0.0, 0.0, 0.0, 0.0, 0.0, 0.0, 0.0, 1.7172380391360648E9, 0.0, 2024-06-01 03:33:59.136
61.0, 187500.0, -31467.79167268177, 187500.0, 187500.0, 187500.0, 187500.0, 187500.0, -91288.90529738729, 0.018000000000000002, -0.018000000000000002, 0.982, 192.0, 0.0, 0.0, 0.0, 0.0, 0.0, 0.0, 0.0, 0.0, 0.0, 1.7172380391360843E9, 0.0, 2024-06-01 03:33:59.136
62.0, 187500.0, -31471.94909715046, 187500.0, 187500.0, 187500.0, 187500.0, 187500.0, -91291.72161718865, 0.018000000000000002, -0.018000000000000002, 0.982, 192.0, 0.0, 0.0, 0.0, 0.0, 0.0, 0.0, 0.0, 0.0, 0.0, 1.7172380391360965E9, 0.0, 2024-06-01 03:33:59.136
63.0, 187500.0, -31471.859690172638, 187500.0, 187500.0, 187500.0, 187500.0, 187500.0, -91295.11908234586, 0.018000000000000002, -0.018000000000000002, 0.982, 192.0, 0.0, 0.0, 0.0, 0.0, 0.0, 0.0, 0.0, 0.0, 0.0, 1.7172380391361082E9, 0.0, 2024-06-01 03:33:59.136
64.0, 187500.0, -31475.79359719677, 187500.0, 187500.0, 187500.0, 187500.0, 187500.0, -91293.82268116745, 0.018000000000000002, -0.018000000000000002, 0.982, 192.0, 0.0, 0.0, 0.0, 0.0, 0.0, 0.0, 0.0, 0.0, 0.0, 1.71723803913612E9, 0.0, 2024-06-01 03:33:59.136
65.0, 187500.0, -31498.458266074453, 187500.0, 187500.0, 187500.0, 187500.0, 187500.0, -91310.49708253112, 0.018000000000000002, -0.018000000000000002, 0.982, 192.0, 0.0, 0.0, 0.0, 0.0, 0.0, 0.0, 0.0, 0.0, 0.0, 1.7172380391361332E9, 0.0, 2024-06-01 03:33:59.136
66.0, 187500.0, -31506.79546675628, 187500.0, 187500.0, 187500.0, 187500.0, 187500.0, -91329.22784438466, 0.018000000000000002, -0.018000000000000002, 0.982, 192.0, 0.0, 0.0, 0.0, 0.0, 0.0, 0.0, 0.0, 0.0, 0.0, 1.717238039136145E9, 0.0, 2024-06-01 03:33:59.136
67.0, 187500.0, -31505.968452211437, 187500.0, 187500.0, 187500.0, 187500.0, 187500.0, -91337.54269332203, 0.022, -0.02, 0.98, 192.0, 0.0, 176.0, 255.0, 96.0, 30.0, 160.0, 0.0, 0.0, 0.0, 1.7172380391361573E9, 0.0, 2024-06-01 03:33:59.136
68.0, 187500.0, -31521.949949496982, 187500.0, 187500.0, 187500.0, 187500.0, 187500.0, -91345.14228643684, 0.022, -0.02, 0.98, 192.0, 0.0, 0.0, 0.0, 0.0, 0.0, 0.0, 0.0, 0.0, 0.0, 1.7172380391361697E9, 0.0, 2024-06-01 03:33:59.136
69.0, 187500.0, -31539.563124127762, 187500.0, 187500.0, 187500.0, 187500.0, 187500.0, -91352.67482431828, 0.022, -0.02, 0.98, 192.0, 0.0, 0.0, 0.0, 0.0, 0.0, 0.0, 0.0, 0.0, 0.0, 1.7172380391361823E9, 0.0, 2024-06-01 03:33:59.136
70.0, 187500.0, -31539.0937374942, 187500.0, 187500.0, 187500.0, 187500.0, 187500.0, -91367.22580995868, 0.022, -0.02, 0.98, 192.0, 0.0, 0.0, 0.0, 0.0, 0.0, 0.0, 0.0, 0.0, 0.0, 1.7172380391361945E9, 0.0, 2024-06-01 03:33:59.136
71.0, 187500.0, -31548.123842254146, 187500.0, 187500.0, 187500.0, 187500.0, 187500.0, -91385.10720552293, 0.022, -0.02, 0.98, 192.0, 0.0, 0.0, 0.0, 0.0, 0.0, 0.0, 0.0, 0.0, 0.0, 1.7172380391362062E9, 0.0, 2024-06-01 03:33:59.136
72.0, 187500.0, -31567.703970396993, 187500.0, 187500.0, 187500.0, 187500.0, 187500.0, -91395.2772492501, 0.022, -0.02, 0.98, 192.0, 0.0, 0.0, 0.0, 0.0, 0.0, 0.0, 0.0, 0.0, 0.0, 1.717238039136218E9, 0.0, 2024-06-01 03:33:59.136
73.0, 187500.0, -31587.239395050932, 187500.0, 187500.0, 187500.0, 187500.0, 187500.0, -91404.5755749435, 0.022, -0.02, 0.98, 192.0, 0.0, 0.0, 0.0, 0.0, 0.0, 0.0, 0.0, 0.0, 0.0, 1.71723803913623E9, 0.0, 2024-06-01 03:33:59.136
74.0, 187500.0, -31593.2073108205, 187500.0, 187500.0, 187500.0, 187500.0, 187500.0, -91410.34232501297, 0.022, -0.02, 0.98, 192.0, 0.0, 0.0, 0.0, 0.0, 0.0, 0.0, 0.0, 0.0, 0.0, 1.717238039136242E9, 0.0, 2024-06-01 03:33:59.136
75.0, 187500.0, -31607.288909827344, 187500.0, 187500.0, 187500.0, 187500.0, 187500.0, -91432.9846421462, 0.022, -0.02, 0.98, 192.0, 0.0, 0.0, 0.0, 0.0, 0.0, 0.0, 0.0, 0.0, 0.0, 1.7172380391362536E9, 0.0, 2024-06-01 03:33:59.136
76.0, 187500.0, -31610.753430217916, 187500.0, 187500.0, 187500.0, 187500.0, 187500.0, -91442.88646493989, 0.022, -0.02, 0.98, 192.0, 0.0, 0.0, 0.0, 0.0, 0.0, 0.0, 0.0, 0.0, 0.0, 1.717238039136273E9, 0.0, 2024-06-01 03:33:59.136
77.0, 187500.0, -31611.78161046286, 187500.0, 187500.0, 187500.0, 187500.0, 187500.0, -91435.57744450301, 0.02, -0.018000000000000002, 0.982, 192.0, 0.0, 160.0, 255.0, 112.0, 30.0, 176.0, 0.0, 0.0, 0.0, 1.7172380391362855E9, 0.0, 2024-06-01 03:33:59.136
78.0, 187500.0, -31608.33944181674, 187500.0, 187500.0, 187500.0, 187500.0, 187500.0, -91433.6328427354, 0.02, -0.018000000000000002, 0.982, 192.0, 0.0, 0.0, 0.0, 0.0, 0.0, 0.0, 0.0, 0.0, 0.0, 1.7172380391362984E9, 0.0, 2024-06-01 03:33:59.136
79.0, 187500.0, -31606.93128191606, 187500.0, 187500.0, 187500.0, 187500.0, 187500.0, -91440.02544164962, 0.02, -0.018000000000000002, 0.982, 192.0, 0.0, 0.0, 0.0, 0.0, 0.0, 0.0, 0.0, 0.0, 0.0, 1.7172380391363103E9, 0.0, 2024-06-01 03:33:59.136
80.0, 187500.0, -31612.20629360751, 187500.0, 187500.0, 187500.0, 187500.0, 187500.0, -91437.27617708161, 0.02, -0.018000000000000002, 0.982, 192.0, 0.0, 0.0, 0.0, 0.0, 0.0, 0.0, 0.0, 0.0, 0.0, 1.7172380391363225E9, 0.0, 2024-06-01 03:33:59.136
81.0, 187500.0, -31617.101325643223, 187500.0, 187500.0, 187500.0, 187500.0, 187500.0, -91431.42002003432, 0.02, -0.018000000000000002, 0.982, 192.0, 0.0, 0.0, 0.0, 0.0, 0.0, 0.0, 0.0, 0.0, 0.0, 1.717238039136334E9, 0.0, 2024-06-01 03:33:59.136
82.0, 187500.0, -31622.30928210131, 187500.0, 187500.0, 187500.0, 187500.0, 187500.0, -91433.76695320212, 0.02, -0.018000000000000002, 0.982, 192.0, 0.0, 0.0, 0.0, 0.0, 0.0, 0.0, 0.0, 0.0, 0.0, 1.717238039136346E9, 0.0, 2024-06-01 03:33:59.136
83.0, 187500.0, -31620.610549522706, 187500.0, 187500.0, 187500.0, 187500.0, 187500.0, -91439.10902012695, 0.02, -0.018000000000000002, 0.982, 192.0, 0.0, 0.0, 0.0, 0.0, 0.0, 0.0, 0.0, 0.0, 0.0, 1.717238039136358E9, 0.0, 2024-06-01 03:33:59.136
84.0, 187500.0, -31604.67375572607, 187500.0, 187500.0, 187500.0, 187500.0, 187500.0, -91426.0332496206, 0.02, -0.018000000000000002, 0.982, 192.0, 0.0, 0.0, 0.0, 0.0, 0.0, 0.0, 0.0, 0.0, 0.0, 1.7172380391363707E9, 0.0, 2024-06-01 03:33:59.136
85.0, 187500.0, -31605.903101671112, 187500.0, 187500.0, 187500.0, 187500.0, 187500.0, -91422.50167399665, 0.02, -0.018000000000000002, 0.982, 192.0, 0.0, 0.0, 0.0, 0.0, 0.0, 0.0, 0.0, 0.0, 0.0, 1.7172380391363826E9, 0.0, 2024-06-01 03:33:59.136
86.0, 187500.0, -31614.642633753137, 187500.0, 187500.0, 187500.0, 187500.0, 187500.0, -91437.85732243746, 0.02, -0.018000000000000002, 0.982, 192.0, 0.0, 0.0, 0.0, 0.0, 0.0, 0.0, 0.0, 0.0, 0.0, 1.7172380391363945E9, 0.0, 2024-06-01 03:33:59.136
87.0, 187500.0, -31609.322918572776, 187500.0, 187500.0, 187500.0, 187500.0, 187500.0, -91446.26157835264, 0.018000000000000002, -0.016, 0.982, 192.0, 0.0, 144.0, 255.0, 128.0, 30.0, 176.0, 0.0, 0.0, 0.0, 1.7172380391364071E9, 0.0, 2024-06-01 03:33:59.136
88.0, 187500.0, -31598.951709145513, 187500.0, 187500.0, 187500.0, 187500.0, 187500.0, -91432.51525551263, 0.018000000000000002, -0.016, 0.982, 192.0, 0.0, 0.0, 0.0, 0.0, 0.0, 0.0, 0.0, 0.0, 0.0, 1.7172380391364198E9, 0.0, 2024-06-01 03:33:59.136
89.0, 187500.0, -31600.806903935303, 187500.0, 187500.0, 187500.0, 187500.0, 187500.0, -91419.68535419529, 0.018000000000000002, -0.016, 0.982, 192.0, 0.0, 0.0, 0.0, 0.0, 0.0, 0.0, 0.0, 0.0, 0.0, 1.7172380391364317E9, 0.0, 2024-06-01 03:33:59.136
90.0, 187500.0, -31592.670868953574, 187500.0, 187500.0, 187500.0, 187500.0, 187500.0, -91410.40938024633, 0.018000000000000002, -0.016, 0.982, 192.0, 0.0, 0.0, 0.0, 0.0, 0.0, 0.0, 0.0, 0.0, 0.0, 1.7172380391364439E9, 0.0, 2024-06-01 03:33:59.136
91.0, 187500.0, -31582.85845313769, 187500.0, 187500.0, 187500.0, 187500.0, 187500.0, -91413.11394132543, 0.018000000000000002, -0.016, 0.982, 192.0, 0.0, 0.0, 0.0, 0.0, 0.0, 0.0, 0.0, 0.0, 0.0, 1.7172380391364558E9, 0.0, 2024-06-01 03:33:59.136
92.0, 187500.0, -31570.363827987178, 187500.0, 187500.0, 187500.0, 187500.0, 187500.0, -91409.56001395703, 0.018000000000000002, -0.016, 0.982, 192.0, 0.0, 0.0, 0.0, 0.0, 0.0, 0.0, 0.0, 0.0, 0.0, 1.717238039136475E9, 0.0, 2024-06-01 03:33:59.136
93.0, 187500.0, -31571.660229165584, 187500.0, 187500.0, 187500.0, 187500.0, 187500.0, -91397.89240335136, 0.018000000000000002, -0.016, 0.982, 192.0, 0.0, 0.0, 0.0, 0.0, 0.0, 0.0, 0.0, 0.0, 0.0, 1.7172380391364875E9, 0.0, 2024-06-01 03:33:59.136
94.0, 187500.0, -31579.63980193613, 187500.0, 187500.0, 187500.0, 187500.0, 187500.0, -91389.823423603, 0.018000000000000002, -0.016, 0.982, 192.0, 0.0, 0.0, 0.0, 0.0, 0.0, 0.0, 0.0, 0.0, 0.0, 1.7172380391364994E9, 0.0, 2024-06-01 03:33:59.136
95.0, 187500.0, -31571.682580910037, 187500.0, 187500.0, 187500.0, 187500.0, 187500.0, -91393.15383352684, 0.018000000000000002, -0.016, 0.982, 192.0, 0.0, 0.0, 0.0, 0.0, 0.0, 0.0, 0.0, 0.0, 0.0, 1.7172380391365113E9, 0.0, 2024-06-01 03:33:59.136
96.0, 187500.0, -31554.315275468267, 187500.0, 187500.0, 187500.0, 187500.0, 187500.0, -91388.03528404656, 0.018000000000000002, -0.016, 0.982, 192.0, 0.0, 0.0, 0.0, 0.0, 0.0, 0.0, 0.0, 0.0, 0.0, 1.7172380391365232E9, 0.0, 2024-06-01 03:33:59.136
97.0, 187500.0, -31550.87310682215, 187500.0, 187500.0, 187500.0, 187500.0, 187500.0, -91390.24810674765, 0.016, -0.02, 0.982, 192.0, 0.0, 128.0, 255.0, 96.0, 30.0, 176.0, 0.0, 0.0, 0.0, 1.7172380391365352E9, 0.0, 2024-06-01 03:33:59.136
98.0, 187500.0, -31554.941124313013, 187500.0, 187500.0, 187500.0, 187500.0, 187500.0, -91380.3686356984, 0.016, -0.02, 0.982, 192.0, 0.0, 0.0, 0.0, 0.0, 0.0, 0.0, 0.0, 0.0, 0.0, 1.7172380391365478E9, 0.0, 2024-06-01 03:33:59.136
99.0, 187500.0, -31555.455214435486, 187500.0, 187500.0, 187500.0, 187500.0, 187500.0, -91374.51247865112, 0.016, -0.02, 0.982, 192.0, 0.0, 0.0, 0.0, 0.0, 0.0, 0.0, 0.0, 0.0, 0.0, 1.71723803913656E9, 0.0, 2024-06-01 03:33:59.136
100.0, 187500.0, -31540.90422879508, 187500.0, 187500.0, 187500.0, 187500.0, 187500.0, -91362.88957153435, 0.016, -0.02, 0.982, 192.0, 0.0, 0.0, 0.0, 0.0, 0.0, 0.0, 0.0, 0.0, 0.0, 1.717238039136572E9, 0.0, 2024-06-01 03:33:59.136
101.0, 187500.0, -31537.23854270441, 187500.0, 187500.0, 187500.0, 187500.0, 187500.0, -91363.76128956811, 0.016, -0.02, 0.982, 192.0, 0.0, 0.0, 0.0, 0.0, 0.0, 0.0, 0.0, 0.0, 0.0, 1.717238039136584E9, 0.0, 2024-06-01 03:33:59.136
102.0, 187500.0, -31532.835249046715, 187500.0, 187500.0, 187500.0, 187500.0, 187500.0, -91359.82738254397, 0.016, -0.02, 0.982, 192.0, 0.0, 0.0, 0.0, 0.0, 0.0, 0.0, 0.0, 0.0, 0.0, 1.7172380391365957E9, 0.0, 2024-06-01 03:33:59.136
103.0, 187500.0, -31532.119993224147, 187500.0, 187500.0, 187500.0, 187500.0, 187500.0, -91354.30650166351, 0.016, -0.02, 0.982, 192.0, 0.0, 0.0, 0.0, 0.0, 0.0, 0.0, 0.0, 0.0, 0.0, 1.717238039136608E9, 0.0, 2024-06-01 03:33:59.136
104.0, 187500.0, -31520.452382618474, 187500.0, 187500.0, 187500.0, 187500.0, 187500.0, -91347.15394343782, 0.016, -0.02, 0.982, 192.0, 0.0, 0.0, 0.0, 0.0, 0.0, 0.0, 0.0, 0.0, 0.0, 1.7172380391366196E9, 0.0, 2024-06-01 03:33:59.136
105.0, 187500.0, -31508.538902823795, 187500.0, 187500.0, 187500.0, 187500.0, 187500.0, -91343.89058874734, 0.016, -0.02, 0.982, 192.0, 0.0, 0.0, 0.0, 0.0, 0.0, 0.0, 0.0, 0.0, 0.0, 1.7172380391366327E9, 0.0, 2024-06-01 03:33:59.136
106.0, 187500.0, -31513.702155792973, 187500.0, 187500.0, 187500.0, 187500.0, 187500.0, -91345.79048702604, 0.016, -0.02, 0.982, 192.0, 0.0, 0.0, 0.0, 0.0, 0.0, 0.0, 0.0, 0.0, 0.0, 1.717238039136646E9, 0.0, 2024-06-01 03:33:59.136
107.0, 187500.0, -31512.85278950367, 187500.0, 187500.0, 187500.0, 187500.0, 187500.0, -91349.0091382276, 0.016, -0.022, 0.98, 192.0, 0.0, 128.0, 255.0, 80.0, 30.0, 160.0, 0.0, 0.0, 0.0, 1.7172380391366675E9, 0.0, 2024-06-01 03:33:59.136
108.0, 187500.0, -31505.096734177678, 187500.0, 187500.0, 187500.0, 187500.0, 187500.0, -91348.49504810513, 0.016, -0.022, 0.98, 192.0, 0.0, 0.0, 0.0, 0.0, 0.0, 0.0, 0.0, 0.0, 0.0, 1.7172380391366806E9, 0.0, 2024-06-01 03:33:59.136
109.0, 187500.0, -31505.00732719986, 187500.0, 187500.0, 187500.0, 187500.0, 187500.0, -91338.25794914461, 0.016, -0.022, 0.98, 192.0, 0.0, 0.0, 0.0, 0.0, 0.0, 0.0, 0.0, 0.0, 0.0, 1.7172380391366985E9, 0.0, 2024-06-01 03:33:59.136
110.0, 187500.0, -31509.745897024382, 187500.0, 187500.0, 187500.0, 187500.0, 187500.0, -91338.14619042233, 0.016, -0.022, 0.98, 192.0, 0.0, 0.0, 0.0, 0.0, 0.0, 0.0, 0.0, 0.0, 0.0, 1.7172380391367104E9, 0.0, 2024-06-01 03:33:59.136
111.0, 187500.0, -31507.823647001227, 187500.0, 187500.0, 187500.0, 187500.0, 187500.0, -91341.43189685726, 0.016, -0.022, 0.98, 192.0, 0.0, 0.0, 0.0, 0.0, 0.0, 0.0, 0.0, 0.0, 0.0, 1.7172380391367228E9, 0.0, 2024-06-01 03:33:59.136
112.0, 187500.0, -31496.893643962583, 187500.0, 187500.0, 187500.0, 187500.0, 187500.0, -91344.18116142527, 0.016, -0.022, 0.98, 192.0, 0.0, 0.0, 0.0, 0.0, 0.0, 0.0, 0.0, 0.0, 0.0, 1.7172380391367347E9, 0.0, 2024-06-01 03:33:59.136
113.0, 187500.0, -31490.277527603812, 187500.0, 187500.0, 187500.0, 187500.0, 187500.0, -91323.55050129301, 0.016, -0.022, 0.98, 192.0, 0.0, 0.0, 0.0, 0.0, 0.0, 0.0, 0.0, 0.0, 0.0, 1.7172380391367466E9, 0.0, 2024-06-01 03:33:59.136
114.0, 187500.0, -31494.99374568388, 187500.0, 187500.0, 187500.0, 187500.0, 187500.0, -91320.26479485809, 0.016, -0.022, 0.98, 192.0, 0.0, 0.0, 0.0, 0.0, 0.0, 0.0, 0.0, 0.0, 0.0, 1.7172380391367586E9, 0.0, 2024-06-01 03:33:59.136
115.0, 187500.0, -31500.80519924226, 187500.0, 187500.0, 187500.0, 187500.0, 187500.0, -91336.02277469907, 0.016, -0.022, 0.98, 192.0, 0.0, 0.0, 0.0, 0.0, 0.0, 0.0, 0.0, 0.0, 0.0, 1.7172380391367705E9, 0.0, 2024-06-01 03:33:59.136
116.0, 187500.0, -31491.015135170837, 187500.0, 187500.0, 187500.0, 187500.0, 187500.0, -91349.03148997205, 0.016, -0.022, 0.98, 192.0, 0.0, 0.0, 0.0, 0.0, 0.0, 0.0, 0.0, 0.0, 0.0, 1.7172380391367824E9, 0.0, 2024-06-01 03:33:59.136
117.0, 187500.0, -31482.029733899803, 187500.0, 187500.0, 187500.0, 187500.0, 187500.0, -91340.38136486786, 0.016, -0.018000000000000002, 0.984, 192.0, 0.0, 128.0, 255.0, 112.0, 30.0, 192.0, 0.0, 0.0, 0.0, 1.7172380391367943E9, 0.0, 2024-06-01 03:33:59.136
118.0, 187500.0, -31483.080265889203, 187500.0, 187500.0, 187500.0, 187500.0, 187500.0, -91327.35029785041, 0.016, -0.018000000000000002, 0.984, 192.0, 0.0, 0.0, 0.0, 0.0, 0.0, 0.0, 0.0, 0.0, 0.0, 1.717238039136807E9, 0.0, 2024-06-01 03:33:59.136
119.0, 187500.0, -31485.27073684582, 187500.0, 187500.0, 187500.0, 187500.0, 187500.0, -91319.3036698465, 0.016, -0.018000000000000002, 0.984, 192.0, 0.0, 0.0, 0.0, 0.0, 0.0, 0.0, 0.0, 0.0, 0.0, 1.717238039136819E9, 0.0, 2024-06-01 03:33:59.136
120.0, 187500.0, -31476.486501274885, 187500.0, 187500.0, 187500.0, 187500.0, 187500.0, -91323.72931524865, 0.016, -0.018000000000000002, 0.984, 192.0, 0.0, 0.0, 0.0, 0.0, 0.0, 0.0, 0.0, 0.0, 0.0, 1.7172380391368308E9, 0.0, 2024-06-01 03:33:59.136
121.0, 187500.0, -31472.574945995206, 187500.0, 187500.0, 187500.0, 187500.0, 187500.0, -91326.32211760546, 0.016, -0.018000000000000002, 0.984, 192.0, 0.0, 0.0, 0.0, 0.0, 0.0, 0.0, 0.0, 0.0, 0.0, 1.717238039136843E9, 0.0, 2024-06-01 03:33:59.136
122.0, 187500.0, -31476.03946638578, 187500.0, 187500.0, 187500.0, 187500.0, 187500.0, -91322.87994895935, 0.016, -0.018000000000000002, 0.984, 192.0, 0.0, 0.0, 0.0, 0.0, 0.0, 0.0, 0.0, 0.0, 0.0, 1.7172380391368632E9, 0.0, 2024-06-01 03:33:59.136
123.0, 187500.0, -31480.08513213219, 187500.0, 187500.0, 187500.0, 187500.0, 187500.0, -91315.28035584454, 0.016, -0.018000000000000002, 0.984, 192.0, 0.0, 0.0, 0.0, 0.0, 0.0, 0.0, 0.0, 0.0, 0.0, 1.7172380396159627E9, 0.0, 2024-06-01 03:33:59.615
124.0, 187500.0, -31475.435969285485, 187500.0, 187500.0, 187500.0, 187500.0, 187500.0, -91319.21426286869, 0.016, -0.018000000000000002, 0.984, 192.0, 0.0, 0.0, 0.0, 0.0, 0.0, 0.0, 0.0, 0.0, 0.0, 1.7172380396160111E9, 0.0, 2024-06-01 03:33:59.616
125.0, 187500.0, -31464.08128310219, 187500.0, 187500.0, 187500.0, 187500.0, 187500.0, -91321.18121638075, 0.016, -0.018000000000000002, 0.984, 192.0, 0.0, 0.0, 0.0, 0.0, 0.0, 0.0, 0.0, 0.0, 0.0, 1.7172380396160405E9, 0.0, 2024-06-01 03:33:59.616
126.0, 187500.0, -31458.336884777178, 187500.0, 187500.0, 187500.0, 187500.0, 187500.0, -91315.05683839999, 0.016, -0.018000000000000002, 0.984, 192.0, 0.0, 0.0, 0.0, 0.0, 0.0, 0.0, 0.0, 0.0, 0.0, 1.7172380396160655E9, 0.0, 2024-06-01 03:33:59.616
127.0, 187500.0, -31470.60799248314, 187500.0, 187500.0, 187500.0, 187500.0, 187500.0, -91318.2531378571, 0.018000000000000002, -0.018000000000000002, 0.982, 192.0, 0.0, 144.0, 255.0, 112.0, 30.0, 176.0, 0.0, 0.0, 0.0, 1.7172380396160908E9, 0.0, 2024-06-01 03:33:59.616
128.0, 187500.0, -31473.603126240152, 187500.0, 187500.0, 187500.0, 187500.0, 187500.0, -91316.8002744675, 0.018000000000000002, -0.018000000000000002, 0.982, 192.0, 0.0, 0.0, 0.0, 0.0, 0.0, 0.0, 0.0, 0.0, 0.0, 1.7172380396161158E9, 0.0, 2024-06-01 03:33:59.616
129.0, 187500.0, -31462.136681334578, 187500.0, 187500.0, 187500.0, 187500.0, 187500.0, -91313.22399535465, 0.018000000000000002, -0.018000000000000002, 0.982, 192.0, 0.0, 0.0, 0.0, 0.0, 0.0, 0.0, 0.0, 0.0, 0.0, 1.717238039616141E9, 0.0, 2024-06-01 03:33:59.616
130.0, 187500.0, -31457.353408021143, 187500.0, 187500.0, 187500.0, 187500.0, 187500.0, -91302.40575103828, 0.018000000000000002, -0.018000000000000002, 0.982, 192.0, 0.0, 0.0, 0.0, 0.0, 0.0, 0.0, 0.0, 0.0, 0.0, 1.7172380396161664E9, 0.0, 2024-06-01 03:33:59.616
131.0, 187500.0, -31464.46126275793, 187500.0, 187500.0, 187500.0, 187500.0, 187500.0, -91303.5009865166, 0.018000000000000002, -0.018000000000000002, 0.982, 192.0, 0.0, 0.0, 0.0, 0.0, 0.0, 0.0, 0.0, 0.0, 0.0, 1.7172380396161916E9, 0.0, 2024-06-01 03:33:59.616
132.0, 187500.0, -31469.60216398265, 187500.0, 187500.0, 187500.0, 187500.0, 187500.0, -91306.33965806242, 0.018000000000000002, -0.018000000000000002, 0.982, 192.0, 0.0, 0.0, 0.0, 0.0, 0.0, 0.0, 0.0, 0.0, 0.0, 1.717238039616206E9, 0.0, 2024-06-01 03:33:59.616
133.0, 187500.0, -31463.880117402092, 187500.0, 187500.0, 187500.0, 187500.0, 187500.0, -91317.11319888989, 0.018000000000000002, -0.018000000000000002, 0.982, 192.0, 0.0, 0.0, 0.0, 0.0, 0.0, 0.0, 0.0, 0.0, 0.0, 1.7172380396162179E9, 0.0, 2024-06-01 03:33:59.616
134.0, 187500.0, -31455.744082420362, 187500.0, 187500.0, 187500.0, 187500.0, 187500.0, -91308.41837029677, 0.018000000000000002, -0.018000000000000002, 0.982, 192.0, 0.0, 0.0, 0.0, 0.0, 0.0, 0.0, 0.0, 0.0, 0.0, 1.71723803961623E9, 0.0, 2024-06-01 03:33:59.616
135.0, 187500.0, -31459.387416766574, 187500.0, 187500.0, 187500.0, 187500.0, 187500.0, -91300.81877718196, 0.018000000000000002, -0.018000000000000002, 0.982, 192.0, 0.0, 0.0, 0.0, 0.0, 0.0, 0.0, 0.0, 0.0, 0.0, 1.7172380396162424E9, 0.0, 2024-06-01 03:33:59.616
136.0, 187500.0, -31469.64686747156, 187500.0, 187500.0, 187500.0, 187500.0, 187500.0, -91304.46211152818, 0.018000000000000002, -0.018000000000000002, 0.982, 192.0, 0.0, 0.0, 0.0, 0.0, 0.0, 0.0, 0.0, 0.0, 0.0, 1.7172380396162543E9, 0.0, 2024-06-01 03:33:59.616
137.0, 187500.0, -31457.55457372124, 187500.0, 187500.0, 187500.0, 187500.0, 187500.0, -91312.41933255427, 0.018000000000000002, -0.02, 0.982, 192.0, 0.0, 144.0, 255.0, 96.0, 30.0, 176.0, 0.0, 0.0, 0.0, 1.7172380396163042E9, 0.0, 2024-06-01 03:33:59.616
138.0, 187500.0, -31452.056044585235, 187500.0, 187500.0, 187500.0, 187500.0, 187500.0, -91312.79931221, 0.018000000000000002, -0.02, 0.982, 192.0, 0.0, 0.0, 0.0, 0.0, 0.0, 0.0, 0.0, 0.0, 0.0, 1.7172380396163259E9, 0.0, 2024-06-01 03:33:59.616
139.0, 187500.0, -31459.65563770004, 187500.0, 187500.0, 187500.0, 187500.0, 187500.0, -91308.23955634113, 0.018000000000000002, -0.02, 0.982, 192.0, 0.0, 0.0, 0.0, 0.0, 0.0, 0.0, 0.0, 0.0, 0.0, 1.7172380396163461E9, 0.0, 2024-06-01 03:33:59.616
140.0, 187500.0, -31471.211489583435, 187500.0, 187500.0, 187500.0, 187500.0, 187500.0, -91302.58456499393, 0.018000000000000002, -0.02, 0.982, 192.0, 0.0, 0.0, 0.0, 0.0, 0.0, 0.0, 0.0, 0.0, 0.0, 1.7172380396163652E9, 0.0, 2024-06-01 03:33:59.616
141.0, 187500.0, -31463.567192979717, 187500.0, 187500.0, 187500.0, 187500.0, 187500.0, -91305.35618130639, 0.018000000000000002, -0.02, 0.982, 192.0, 0.0, 0.0, 0.0, 0.0, 0.0, 0.0, 0.0, 0.0, 0.0, 1.7172380396163838E9, 0.0, 2024-06-01 03:33:59.616
142.0, 187500.0, -31457.196945809956, 187500.0, 187500.0, 187500.0, 187500.0, 187500.0, -91300.99759113761, 0.018000000000000002, -0.02, 0.982, 192.0, 0.0, 0.0, 0.0, 0.0, 0.0, 0.0, 0.0, 0.0, 0.0, 1.7172380396164036E9, 0.0, 2024-06-01 03:33:59.616
143.0, 187500.0, -31453.888887630572, 187500.0, 187500.0, 187500.0, 187500.0, 187500.0, -91290.26875379906, 0.018000000000000002, -0.02, 0.982, 192.0, 0.0, 0.0, 0.0, 0.0, 0.0, 0.0, 0.0, 0.0, 0.0, 1.7172380396164167E9, 0.0, 2024-06-01 03:33:59.616
144.0, 187500.0, -31458.828623155194, 187500.0, 187500.0, 187500.0, 187500.0, 187500.0, -91303.18806209422, 0.018000000000000002, -0.02, 0.982, 192.0, 0.0, 0.0, 0.0, 0.0, 0.0, 0.0, 0.0, 0.0, 0.0, 1.717238039616429E9, 0.0, 2024-06-01 03:33:59.616
145.0, 187500.0, -31456.615800454118, 187500.0, 187500.0, 187500.0, 187500.0, 187500.0, -91317.73904773463, 0.018000000000000002, -0.02, 0.982, 192.0, 0.0, 0.0, 0.0, 0.0, 0.0, 0.0, 0.0, 0.0, 0.0, 1.717238039616441E9, 0.0, 2024-06-01 03:33:59.616
146.0, 187500.0, -31446.021073582302, 187500.0, 187500.0, 187500.0, 187500.0, 187500.0, -91318.9013384463, 0.018000000000000002, -0.02, 0.982, 192.0, 0.0, 0.0, 0.0, 0.0, 0.0, 0.0, 0.0, 0.0, 0.0, 1.717238039616453E9, 0.0, 2024-06-01 03:33:59.616
147.0, 187500.0, -31441.46131771342, 187500.0, 187500.0, 187500.0, 187500.0, 187500.0, -91304.30564931699, 0.014, -0.024, 0.986, 192.0, 0.0, 112.0, 255.0, 64.0, 30.0, 208.0, 0.0, 0.0, 0.0, 1.717238039616465E9, 0.0, 2024-06-01 03:33:59.616
148.0, 187500.0, -31458.225126054902, 187500.0, 187500.0, 187500.0, 187500.0, 187500.0, -91295.58846897942, 0.014, -0.024, 0.986, 192.0, 0.0, 0.0, 0.0, 0.0, 0.0, 0.0, 0.0, 0.0, 0.0, 1.7172380396164775E9, 0.0, 2024-06-01 03:33:59.616
149.0, 187500.0, -31460.460300500432, 187500.0, 187500.0, 187500.0, 187500.0, 187500.0, -91295.52141374606, 0.014, -0.024, 0.986, 192.0, 0.0, 0.0, 0.0, 0.0, 0.0, 0.0, 0.0, 0.0, 0.0, 1.7172380396164896E9, 0.0, 2024-06-01 03:33:59.616
150.0, 187500.0, -31445.082300315178, 187500.0, 187500.0, 187500.0, 187500.0, 187500.0, -91303.34452430542, 0.014, -0.024, 0.986, 192.0, 0.0, 0.0, 0.0, 0.0, 0.0, 0.0, 0.0, 0.0, 0.0, 1.717238039616502E9, 0.0, 2024-06-01 03:33:59.616
151.0, 187500.0, -31445.775204393292, 187500.0, 187500.0, 187500.0, 187500.0, 187500.0, -91299.7011899592, 0.014, -0.024, 0.986, 192.0, 0.0, 0.0, 0.0, 0.0, 0.0, 0.0, 0.0, 0.0, 0.0, 1.717238039616514E9, 0.0, 2024-06-01 03:33:59.616
152.0, 187500.0, -31455.185288808978, 187500.0, 187500.0, 187500.0, 187500.0, 187500.0, -91290.38051252134, 0.014, -0.024, 0.986, 192.0, 0.0, 0.0, 0.0, 0.0, 0.0, 0.0, 0.0, 0.0, 0.0, 1.7172380396165369E9, 0.0, 2024-06-01 03:33:59.616
153.0, 187500.0, -31459.901506889048, 187500.0, 187500.0, 187500.0, 187500.0, 187500.0, -91312.06170464298, 0.014, -0.024, 0.986, 192.0, 0.0, 0.0, 0.0, 0.0, 0.0, 0.0, 0.0, 0.0, 0.0, 1.7172380396165488E9, 0.0, 2024-06-01 03:33:59.616
154.0, 187500.0, -31435.448698454944, 187500.0, 187500.0, 187500.0, 187500.0, 187500.0, -91313.13458837684, 0.014, -0.024, 0.986, 192.0, 0.0, 0.0, 0.0, 0.0, 0.0, 0.0, 0.0, 0.0, 0.0, 1.7172380396165607E9, 0.0, 2024-06-01 03:33:59.616
155.0, 187500.0, -31431.60419840863, 187500.0, 187500.0, 187500.0, 187500.0, 187500.0, -91304.66327722828, 0.014, -0.024, 0.986, 192.0, 0.0, 0.0, 0.0, 0.0, 0.0, 0.0, 0.0, 0.0, 0.0, 1.7172380396165729E9, 0.0, 2024-06-01 03:33:59.616
156.0, 187500.0, -31446.490460215864, 187500.0, 187500.0, 187500.0, 187500.0, 187500.0, -91293.17448057825, 0.012, -0.026000000000000002, 0.984, 192.0, 0.0, 96.0, 255.0, 48.0, 30.0, 192.0, 0.0, 0.0, 0.0, 1.7172380396165848E9, 0.0, 2024-06-01 03:33:59.616
157.0, 187500.0, -31452.79365215226, 187500.0, 187500.0, 187500.0, 187500.0, 187500.0, -91284.83727989641, 0.012, -0.026000000000000002, 0.984, 192.0, 0.0, 0.0, 0.0, 0.0, 0.0, 0.0, 0.0, 0.0, 0.0, 1.7172380396165972E9, 0.0, 2024-06-01 03:33:59.616
158.0, 187500.0, -31437.236838011366, 187500.0, 187500.0, 187500.0, 187500.0, 187500.0, -91290.31345728796, 0.012, -0.026000000000000002, 0.984, 192.0, 0.0, 0.0, 0.0, 0.0, 0.0, 0.0, 0.0, 0.0, 0.0, 1.717238039616609E9, 0.0, 2024-06-01 03:33:59.616
159.0, 187500.0, -31429.436079196465, 187500.0, 187500.0, 187500.0, 187500.0, 187500.0, -91290.73814043262, 0.012, -0.026000000000000002, 0.984, 192.0, 0.0, 0.0, 0.0, 0.0, 0.0, 0.0, 0.0, 0.0, 0.0, 1.717238039616621E9, 0.0, 2024-06-01 03:33:59.616
160.0, 187500.0, -31439.047329312245, 187500.0, 187500.0, 187500.0, 187500.0, 187500.0, -91287.58654446442, 0.012, -0.026000000000000002, 0.984, 192.0, 0.0, 0.0, 0.0, 0.0, 0.0, 0.0, 0.0, 0.0, 0.0, 1.7172380396166327E9, 0.0, 2024-06-01 03:33:59.616
161.0, 187500.0, -31445.574038693198, 187500.0, 187500.0, 187500.0, 187500.0, 187500.0, -91295.27554455705, 0.012, -0.026000000000000002, 0.984, 192.0, 0.0, 0.0, 0.0, 0.0, 0.0, 0.0, 0.0, 0.0, 0.0, 1.7172380396166449E9, 0.0, 2024-06-01 03:33:59.616
162.0, 187500.0, -31439.22614326789, 187500.0, 187500.0, 187500.0, 187500.0, 187500.0, -91296.52724224655, 0.012, -0.026000000000000002, 0.984, 192.0, 0.0, 0.0, 0.0, 0.0, 0.0, 0.0, 0.0, 0.0, 0.0, 1.7172380396166565E9, 0.0, 2024-06-01 03:33:59.616
163.0, 187500.0, -31436.342768233153, 187500.0, 187500.0, 187500.0, 187500.0, 187500.0, -91294.73910269012, 0.012, -0.026000000000000002, 0.984, 192.0, 0.0, 0.0, 0.0, 0.0, 0.0, 0.0, 0.0, 0.0, 0.0, 1.7172380396166685E9, 0.0, 2024-06-01 03:33:59.616
164.0, 187500.0, -31444.903486359537, 187500.0, 187500.0, 187500.0, 187500.0, 187500.0, -91295.58846897942, 0.012, -0.026000000000000002, 0.984, 192.0, 0.0, 0.0, 0.0, 0.0, 0.0, 0.0, 0.0, 0.0, 0.0, 1.7172380396166804E9, 0.0, 2024-06-01 03:33:59.616
165.0, 187500.0, -31444.903486359537, 187500.0, 187500.0, 187500.0, 187500.0, 187500.0, -91296.1025591019, 0.012, -0.026000000000000002, 0.984, 192.0, 0.0, 0.0, 0.0, 0.0, 0.0, 0.0, 0.0, 0.0, 0.0, 1.717238039616692E9, 0.0, 2024-06-01 03:33:59.616
166.0, 187500.0, -31435.292236243757, 187500.0, 187500.0, 187500.0, 187500.0, 187500.0, -91295.02967536804, 0.016, -0.024, 0.982, 192.0, 0.0, 128.0, 255.0, 64.0, 30.0, 176.0, 0.0, 0.0, 0.0, 1.717238039616704E9, 0.0, 2024-06-01 03:33:59.616
167.0, 187500.0, -31427.55853266222, 187500.0, 187500.0, 187500.0, 187500.0, 187500.0, -91288.92764913174, 0.016, -0.024, 0.982, 192.0, 0.0, 0.0, 0.0, 0.0, 0.0, 0.0, 0.0, 0.0, 0.0, 1.7172380396167247E9, 0.0, 2024-06-01 03:33:59.616
168.0, 187500.0, -31427.49147742885, 187500.0, 187500.0, 187500.0, 187500.0, 187500.0, -91281.66333218376, 0.016, -0.024, 0.982, 192.0, 0.0, 0.0, 0.0, 0.0, 0.0, 0.0, 0.0, 0.0, 0.0, 1.717238039616737E9, 0.0, 2024-06-01 03:33:59.616
169.0, 187500.0, -31430.151335019036, 187500.0, 187500.0, 187500.0, 187500.0, 187500.0, -91282.08801532841, 0.016, -0.024, 0.982, 192.0, 0.0, 0.0, 0.0, 0.0, 0.0, 0.0, 0.0, 0.0, 0.0, 1.7172380396167486E9, 0.0, 2024-06-01 03:33:59.616
170.0, 187500.0, -31423.490515171354, 187500.0, 187500.0, 187500.0, 187500.0, 187500.0, -91269.79455587799, 0.016, -0.024, 0.982, 192.0, 0.0, 0.0, 0.0, 0.0, 0.0, 0.0, 0.0, 0.0, 0.0, 1.7172380396167605E9, 0.0, 2024-06-01 03:33:59.616
171.0, 187500.0, -31421.232988981366, 187500.0, 187500.0, 187500.0, 187500.0, 187500.0, -91276.50007921459, 0.016, -0.024, 0.982, 192.0, 0.0, 0.0, 0.0, 0.0, 0.0, 0.0, 0.0, 0.0, 0.0, 1.7172380396167724E9, 0.0, 2024-06-01 03:33:59.616
172.0, 187500.0, -31427.044442539747, 187500.0, 187500.0, 187500.0, 187500.0, 187500.0, -91284.65846594078, 0.016, -0.024, 0.982, 192.0, 0.0, 0.0, 0.0, 0.0, 0.0, 0.0, 0.0, 0.0, 0.0, 1.717238039616784E9, 0.0, 2024-06-01 03:33:59.616
173.0, 187500.0, -31435.89573334405, 187500.0, 187500.0, 187500.0, 187500.0, 187500.0, -91279.7410821606, 0.016, -0.024, 0.982, 192.0, 0.0, 0.0, 0.0, 0.0, 0.0, 0.0, 0.0, 0.0, 0.0, 1.717238039616796E9, 0.0, 2024-06-01 03:33:59.616
174.0, 187500.0, -31434.956960076925, 187500.0, 187500.0, 187500.0, 187500.0, 187500.0, -91285.9995706081, 0.016, -0.024, 0.982, 192.0, 0.0, 0.0, 0.0, 0.0, 0.0, 0.0, 0.0, 0.0, 0.0, 1.717238039616808E9, 0.0, 2024-06-01 03:33:59.616
175.0, 187500.0, -31431.2689222418, 187500.0, 187500.0, 187500.0, 187500.0, 187500.0, -91294.56028873447, 0.016, -0.024, 0.982, 192.0, 0.0, 0.0, 0.0, 0.0, 0.0, 0.0, 0.0, 0.0, 0.0, 1.7172380396168199E9, 0.0, 2024-06-01 03:33:59.616
176.0, 187500.0, -31433.057061798223, 187500.0, 187500.0, 187500.0, 187500.0, 187500.0, -91298.38243703633, 0.014, -0.022, 0.982, 192.0, 0.0, 112.0, 255.0, 80.0, 30.0, 176.0, 0.0, 0.0, 0.0, 1.7172380396168318E9, 0.0, 2024-06-01 03:33:59.616
177.0, 187500.0, -31438.17561127849, 187500.0, 187500.0, 187500.0, 187500.0, 187500.0, -91293.42034976726, 0.014, -0.022, 0.982, 192.0, 0.0, 0.0, 0.0, 0.0, 0.0, 0.0, 0.0, 0.0, 0.0, 1.7172380396168442E9, 0.0, 2024-06-01 03:33:59.616
178.0, 187500.0, -31435.538105432763, 187500.0, 187500.0, 187500.0, 187500.0, 187500.0, -91292.3027625445, 0.014, -0.022, 0.982, 192.0, 0.0, 0.0, 0.0, 0.0, 0.0, 0.0, 0.0, 0.0, 0.0, 1.717238039616856E9, 0.0, 2024-06-01 03:33:59.616
179.0, 187500.0, -31427.424422195487, 187500.0, 187500.0, 187500.0, 187500.0, 187500.0, -91295.38730327932, 0.014, -0.022, 0.982, 192.0, 0.0, 0.0, 0.0, 0.0, 0.0, 0.0, 0.0, 0.0, 0.0, 1.717238039616868E9, 0.0, 2024-06-01 03:33:59.616
180.0, 187500.0, -31425.926855316982, 187500.0, 187500.0, 187500.0, 187500.0, 187500.0, -91293.73327418962, 0.014, -0.022, 0.982, 192.0, 0.0, 0.0, 0.0, 0.0, 0.0, 0.0, 0.0, 0.0, 0.0, 1.71723803961688E9, 0.0, 2024-06-01 03:33:59.616
181.0, 187500.0, -31425.010433794312, 187500.0, 187500.0, 187500.0, 187500.0, 187500.0, -91283.8985066293, 0.014, -0.022, 0.982, 192.0, 0.0, 0.0, 0.0, 0.0, 0.0, 0.0, 0.0, 0.0, 0.0, 1.7172380396168916E9, 0.0, 2024-06-01 03:33:59.616
182.0, 187500.0, -31428.74317511835, 187500.0, 187500.0, 187500.0, 187500.0, 187500.0, -91278.8470123824, 0.014, -0.022, 0.982, 192.0, 0.0, 0.0, 0.0, 0.0, 0.0, 0.0, 0.0, 0.0, 0.0, 1.7172380396169116E9, 0.0, 2024-06-01 03:33:59.616
183.0, 187500.0, -31427.08914602866, 187500.0, 187500.0, 187500.0, 187500.0, 187500.0, -91293.5991637229, 0.014, -0.022, 0.982, 192.0, 0.0, 0.0, 0.0, 0.0, 0.0, 0.0, 0.0, 0.0, 0.0, 1.7172380396169236E9, 0.0, 2024-06-01 03:33:59.616
184.0, 187500.0, -31425.815096594706, 187500.0, 187500.0, 187500.0, 187500.0, 187500.0, -91297.30955330248, 0.014, -0.022, 0.982, 192.0, 0.0, 0.0, 0.0, 0.0, 0.0, 0.0, 0.0, 0.0, 0.0, 1.7172380396169355E9, 0.0, 2024-06-01 03:33:59.616
185.0, 187500.0, -31428.832582096173, 187500.0, 187500.0, 187500.0, 187500.0, 187500.0, -91292.01218986657, 0.014, -0.022, 0.982, 192.0, 0.0, 0.0, 0.0, 0.0, 0.0, 0.0, 0.0, 0.0, 0.0, 1.7172380396169474E9, 0.0, 2024-06-01 03:33:59.616
186.0, 187500.0, -31428.92198907399, 187500.0, 187500.0, 187500.0, 187500.0, 187500.0, -91285.35137001889, 0.016, -0.02, 0.988, 192.0, 0.0, 128.0, 255.0, 96.0, 30.0, 224.0, 0.0, 0.0, 0.0, 1.717238039616959E9, 0.0, 2024-06-01 03:33:59.616
187.0, 187500.0, -31426.776221606284, 187500.0, 187500.0, 187500.0, 187500.0, 187500.0, -91286.33484677493, 0.016, -0.02, 0.988, 192.0, 0.0, 0.0, 0.0, 0.0, 0.0, 0.0, 0.0, 0.0, 0.0, 1.7172380396169717E9, 0.0, 2024-06-01 03:33:59.616
188.0, 187500.0, -31423.691680871452, 187500.0, 187500.0, 187500.0, 187500.0, 187500.0, -91288.9947043651, 0.016, -0.02, 0.988, 192.0, 0.0, 0.0, 0.0, 0.0, 0.0, 0.0, 0.0, 0.0, 0.0, 1.717238039616984E9, 0.0, 2024-06-01 03:33:59.616
189.0, 187500.0, -31431.090108286156, 187500.0, 187500.0, 187500.0, 187500.0, 187500.0, -91277.30474201498, 0.016, -0.02, 0.988, 192.0, 0.0, 0.0, 0.0, 0.0, 0.0, 0.0, 0.0, 0.0, 0.0, 1.7172380396169958E9, 0.0, 2024-06-01 03:33:59.616
190.0, 187500.0, -31439.092032801156, 187500.0, 187500.0, 187500.0, 187500.0, 187500.0, -91274.8907536138, 0.016, -0.02, 0.988, 192.0, 0.0, 0.0, 0.0, 0.0, 0.0, 0.0, 0.0, 0.0, 0.0, 1.7172380396170075E9, 0.0, 2024-06-01 03:33:59.617
191.0, 187500.0, -31427.580884406674, 187500.0, 187500.0, 187500.0, 187500.0, 187500.0, -91292.88390790032, 0.016, -0.02, 0.988, 192.0, 0.0, 0.0, 0.0, 0.0, 0.0, 0.0, 0.0, 0.0, 0.0, 1.7172380396170197E9, 0.0, 2024-06-01 03:33:59.617
192.0, 187500.0, -31418.774297091284, 187500.0, 187500.0, 187500.0, 187500.0, 187500.0, -91304.19389059472, 0.016, -0.02, 0.988, 192.0, 0.0, 0.0, 0.0, 0.0, 0.0, 0.0, 0.0, 0.0, 0.0, 1.7172380396170316E9, 0.0, 2024-06-01 03:33:59.617
193.0, 187500.0, -31424.74221286085, 187500.0, 187500.0, 187500.0, 187500.0, 187500.0, -91303.88096617234, 0.016, -0.02, 0.988, 192.0, 0.0, 0.0, 0.0, 0.0, 0.0, 0.0, 0.0, 0.0, 0.0, 1.7172380396170435E9, 0.0, 2024-06-01 03:33:59.617
194.0, 187500.0, -31428.251436740335, 187500.0, 187500.0, 187500.0, 187500.0, 187500.0, -91295.94609689071, 0.016, -0.02, 0.988, 192.0, 0.0, 0.0, 0.0, 0.0, 0.0, 0.0, 0.0, 0.0, 0.0, 1.7172380396170552E9, 0.0, 2024-06-01 03:33:59.617
195.0, 187500.0, -31426.351538461633, 187500.0, 187500.0, 187500.0, 187500.0, 187500.0, -91295.65552421278, 0.016, -0.02, 0.988, 192.0, 0.0, 0.0, 0.0, 0.0, 0.0, 0.0, 0.0, 0.0, 0.0, 1.717238039617067E9, 0.0, 2024-06-01 03:33:59.617
196.0, 187500.0, -31426.776221606284, 187500.0, 187500.0, 187500.0, 187500.0, 187500.0, -91302.42810278274, 0.014, -0.026000000000000002, 0.986, 192.0, 0.0, 112.0, 255.0, 48.0, 30.0, 208.0, 0.0, 0.0, 0.0, 1.7172380396170793E9, 0.0, 2024-06-01 03:33:59.617
197.0, 187500.0, -31426.351538461633, 187500.0, 187500.0, 187500.0, 187500.0, 187500.0, -91288.59237296491, 0.014, -0.026000000000000002, 0.986, 192.0, 0.0, 0.0, 0.0, 0.0, 0.0, 0.0, 0.0, 0.0, 0.0, 1.7172380396170917E9, 0.0, 2024-06-01 03:33:59.617
198.0, 187500.0, -31433.772317620795, 187500.0, 187500.0, 187500.0, 187500.0, 187500.0, -91282.0433118395, 0.014, -0.026000000000000002, 0.986, 192.0, 0.0, 0.0, 0.0, 0.0, 0.0, 0.0, 0.0, 0.0, 0.0, 1.7172380396171112E9, 0.0, 2024-06-01 03:33:59.617
199.0, 187500.0, -31432.878247842582, 187500.0, 187500.0, 187500.0, 187500.0, 187500.0, -91288.19004156471, 0.014, -0.026000000000000002, 0.986, 192.0, 0.0, 0.0, 0.0, 0.0, 0.0, 0.0, 0.0, 0.0, 0.0, 1.717238039617123E9, 0.0, 2024-06-01 03:33:59.617
200.0, 187500.0, -31423.758736104817, 187500.0, 187500.0, 187500.0, 187500.0, 187500.0, -91290.82754741044, 0.014, -0.026000000000000002, 0.986, 192.0, 0.0, 0.0, 0.0, 0.0, 0.0, 0.0, 0.0, 0.0, 0.0, 1.7172380396171348E9, 0.0, 2024-06-01 03:33:59.617
201.0, 187500.0, -31417.120268001592, 187500.0, 187500.0, 187500.0, 187500.0, 187500.0, -91286.91599213076, 0.014, -0.026000000000000002, 0.986, 192.0, 0.0, 0.0, 0.0, 0.0, 0.0, 0.0, 0.0, 0.0, 0.0, 1.7172380396171467E9, 0.0, 2024-06-01 03:33:59.617
202.0, 187500.0, -31425.189247749957, 187500.0, 187500.0, 187500.0, 187500.0, 187500.0, -91284.36789326285, 0.014, -0.026000000000000002, 0.986, 192.0, 0.0, 0.0, 0.0, 0.0, 0.0, 0.0, 0.0, 0.0, 0.0, 1.717238039617159E9, 0.0, 2024-06-01 03:33:59.617
203.0, 187500.0, -31429.592541407652, 187500.0, 187500.0, 187500.0, 187500.0, 187500.0, -91295.4990620016, 0.014, -0.026000000000000002, 0.986, 192.0, 0.0, 0.0, 0.0, 0.0, 0.0, 0.0, 0.0, 0.0, 0.0, 1.7172380396171708E9, 0.0, 2024-06-01 03:33:59.617
204.0, 187500.0, -31419.08722151366, 187500.0, 187500.0, 187500.0, 187500.0, 187500.0, -91298.22597482515, 0.014, -0.026000000000000002, 0.986, 192.0, 0.0, 0.0, 0.0, 0.0, 0.0, 0.0, 0.0, 0.0, 0.0, 1.7172380396171825E9, 0.0, 2024-06-01 03:33:59.617
205.0, 187500.0, -31415.712108100906, 187500.0, 187500.0, 187500.0, 187500.0, 187500.0, -91285.82075665245, 0.014, -0.026000000000000002, 0.986, 192.0, 0.0, 0.0, 0.0, 0.0, 0.0, 0.0, 0.0, 0.0, 0.0, 1.7172380396171944E9, 0.0, 2024-06-01 03:33:59.617
206.0, 187500.0, -31428.586712907163, 187500.0, 187500.0, 187500.0, 187500.0, 187500.0, -91283.67498918474, 0.018000000000000002, -0.02, 0.986, 192.0, 0.0, 144.0, 255.0, 96.0, 30.0, 208.0, 0.0, 0.0, 0.0, 1.7172380396172063E9, 0.0, 2024-06-01 03:33:59.617
207.0, 187500.0, -31439.516715945807, 187500.0, 187500.0, 187500.0, 187500.0, 187500.0, -91297.3542567914, 0.018000000000000002, -0.02, 0.986, 192.0, 0.0, 0.0, 0.0, 0.0, 0.0, 0.0, 0.0, 0.0, 0.0, 1.7172380396172187E9, 0.0, 2024-06-01 03:33:59.617
208.0, 187500.0, -31429.88311408557, 187500.0, 187500.0, 187500.0, 187500.0, 187500.0, -91306.22789934014, 0.018000000000000002, -0.02, 0.986, 192.0, 0.0, 0.0, 0.0, 0.0, 0.0, 0.0, 0.0, 0.0, 0.0, 1.717238039617231E9, 0.0, 2024-06-01 03:33:59.617
209.0, 187500.0, -31419.08722151366, 187500.0, 187500.0, 187500.0, 187500.0, 187500.0, -91294.94026839022, 0.018000000000000002, -0.02, 0.986, 192.0, 0.0, 0.0, 0.0, 0.0, 0.0, 0.0, 0.0, 0.0, 0.0, 1.7172380396172428E9, 0.0, 2024-06-01 03:33:59.617
210.0, 187500.0, -31424.27282622729, 187500.0, 187500.0, 187500.0, 187500.0, 187500.0, -91289.70996018767, 0.018000000000000002, -0.02, 0.986, 192.0, 0.0, 0.0, 0.0, 0.0, 0.0, 0.0, 0.0, 0.0, 0.0, 1.7172380396172545E9, 0.0, 2024-06-01 03:33:59.617
211.0, 187500.0, -31433.369986220598, 187500.0, 187500.0, 187500.0, 187500.0, 187500.0, -91290.31345728796, 0.018000000000000002, -0.02, 0.986, 192.0, 0.0, 0.0, 0.0, 0.0, 0.0, 0.0, 0.0, 0.0, 0.0, 1.7172380396172664E9, 0.0, 2024-06-01 03:33:59.617
212.0, 187500.0, -31427.64793964004, 187500.0, 187500.0, 187500.0, 187500.0, 187500.0, -91292.32511428895, 0.018000000000000002, -0.02, 0.986, 192.0, 0.0, 0.0, 0.0, 0.0, 0.0, 0.0, 0.0, 0.0, 0.0, 1.717238039617278E9, 0.0, 2024-06-01 03:33:59.617
213.0, 187500.0, -31421.478858170376, 187500.0, 187500.0, 187500.0, 187500.0, 187500.0, -91292.9509631337, 0.018000000000000002, -0.02, 0.986, 192.0, 0.0, 0.0, 0.0, 0.0, 0.0, 0.0, 0.0, 0.0, 0.0, 1.7172380396172976E9, 0.0, 2024-06-01 03:33:59.617
214.0, 187500.0, -31423.15523900452, 187500.0, 187500.0, 187500.0, 187500.0, 187500.0, -91280.85866938338, 0.018000000000000002, -0.02, 0.986, 192.0, 0.0, 0.0, 0.0, 0.0, 0.0, 0.0, 0.0, 0.0, 0.0, 1.7172380396173096E9, 0.0, 2024-06-01 03:33:59.617
215.0, 187500.0, -31426.46329718391, 187500.0, 187500.0, 187500.0, 187500.0, 187500.0, -91276.85770712588, 0.018000000000000002, -0.02, 0.986, 192.0, 0.0, 0.0, 0.0, 0.0, 0.0, 0.0, 0.0, 0.0, 0.0, 1.7172380396173215E9, 0.0, 2024-06-01 03:33:59.617
216.0, 187500.0, -31418.729593602373, 187500.0, 187500.0, 187500.0, 187500.0, 187500.0, -91290.82754741044, 0.018000000000000002, -0.022, 0.986, 192.0, 0.0, 144.0, 255.0, 80.0, 30.0, 208.0, 0.0, 0.0, 0.0, 1.717238039617334E9, 0.0, 2024-06-01 03:33:59.617
217.0, 187500.0, -31414.393355178043, 187500.0, 187500.0, 187500.0, 187500.0, 187500.0, -91299.09769285891, 0.018000000000000002, -0.022, 0.986, 192.0, 0.0, 0.0, 0.0, 0.0, 0.0, 0.0, 0.0, 0.0, 0.0, 1.7172380396173468E9, 0.0, 2024-06-01 03:33:59.617
218.0, 187500.0, -31422.283520970766, 187500.0, 187500.0, 187500.0, 187500.0, 187500.0, -91295.74493119061, 0.018000000000000002, -0.022, 0.986, 192.0, 0.0, 0.0, 0.0, 0.0, 0.0, 0.0, 0.0, 0.0, 0.0, 1.7172380396173587E9, 0.0, 2024-06-01 03:33:59.617
219.0, 187500.0, -31430.50896293032, 187500.0, 187500.0, 187500.0, 187500.0, 187500.0, -91287.92182063125, 0.018000000000000002, -0.022, 0.986, 192.0, 0.0, 0.0, 0.0, 0.0, 0.0, 0.0, 0.0, 0.0, 0.0, 1.717238039617372E9, 0.0, 2024-06-01 03:33:59.617
220.0, 187500.0, -31422.708204115417, 187500.0, 187500.0, 187500.0, 187500.0, 187500.0, -91294.87321315685, 0.018000000000000002, -0.022, 0.986, 192.0, 0.0, 0.0, 0.0, 0.0, 0.0, 0.0, 0.0, 0.0, 0.0, 1.717238039617384E9, 0.0, 2024-06-01 03:33:59.617
221.0, 187500.0, -31414.013375522303, 187500.0, 187500.0, 187500.0, 187500.0, 187500.0, -91297.89069865832, 0.018000000000000002, -0.022, 0.986, 192.0, 0.0, 0.0, 0.0, 0.0, 0.0, 0.0, 0.0, 0.0, 0.0, 1.717238039617396E9, 0.0, 2024-06-01 03:33:59.617
222.0, 187500.0, -31408.60425336412, 187500.0, 187500.0, 187500.0, 187500.0, 187500.0, -91282.6468089398, 0.018000000000000002, -0.022, 0.986, 192.0, 0.0, 0.0, 0.0, 0.0, 0.0, 0.0, 0.0, 0.0, 0.0, 1.717238039617408E9, 0.0, 2024-06-01 03:33:59.617
223.0, 187500.0, -31417.991986035348, 187500.0, 187500.0, 187500.0, 187500.0, 187500.0, -91284.61376245186, 0.018000000000000002, -0.022, 0.986, 192.0, 0.0, 0.0, 0.0, 0.0, 0.0, 0.0, 0.0, 0.0, 0.0, 1.7172380396174195E9, 0.0, 2024-06-01 03:33:59.617
224.0, 187500.0, -31421.99294829285, 187500.0, 187500.0, 187500.0, 187500.0, 187500.0, -91294.33677128992, 0.018000000000000002, -0.022, 0.986, 192.0, 0.0, 0.0, 0.0, 0.0, 0.0, 0.0, 0.0, 0.0, 0.0, 1.7172380396174316E9, 0.0, 2024-06-01 03:33:59.617
225.0, 187500.0, -31407.911349286005, 187500.0, 187500.0, 187500.0, 187500.0, 187500.0, -91284.68081768524, 0.018000000000000002, -0.022, 0.986, 192.0, 0.0, 0.0, 0.0, 0.0, 0.0, 0.0, 0.0, 0.0, 0.0, 1.7172380396174433E9, 0.0, 2024-06-01 03:33:59.617
226.0, 187500.0, -31405.3632504181, 187500.0, 187500.0, 187500.0, 187500.0, 187500.0, -91275.56130594747, 0.012, -0.02, 0.988, 192.0, 0.0, 96.0, 255.0, 96.0, 30.0, 224.0, 0.0, 0.0, 0.0, 1.7172380396174552E9, 0.0, 2024-06-01 03:33:59.617
227.0, 187500.0, -31413.78985807775, 187500.0, 187500.0, 187500.0, 187500.0, 187500.0, -91276.83535538142, 0.012, -0.02, 0.988, 192.0, 0.0, 0.0, 0.0, 0.0, 0.0, 0.0, 0.0, 0.0, 0.0, 1.7172380396174676E9, 0.0, 2024-06-01 03:33:59.617
228.0, 187500.0, -31410.302985942722, 187500.0, 187500.0, 187500.0, 187500.0, 187500.0, -91275.78482339202, 0.012, -0.02, 0.988, 192.0, 0.0, 0.0, 0.0, 0.0, 0.0, 0.0, 0.0, 0.0, 0.0, 1.7172380396174903E9, 0.0, 2024-06-01 03:33:59.617
229.0, 187500.0, -31398.769485803783, 187500.0, 187500.0, 187500.0, 187500.0, 187500.0, -91279.22699203814, 0.012, -0.02, 0.988, 192.0, 0.0, 0.0, 0.0, 0.0, 0.0, 0.0, 0.0, 0.0, 0.0, 1.7172380396175022E9, 0.0, 2024-06-01 03:33:59.617
230.0, 187500.0, -31395.39437239103, 187500.0, 187500.0, 187500.0, 187500.0, 187500.0, -91282.28918102851, 0.012, -0.02, 0.988, 192.0, 0.0, 0.0, 0.0, 0.0, 0.0, 0.0, 0.0, 0.0, 0.0, 1.7172380396175141E9, 0.0, 2024-06-01 03:33:59.617
231.0, 187500.0, -31418.84135232465, 187500.0, 187500.0, 187500.0, 187500.0, 187500.0, -91293.5991637229, 0.012, -0.02, 0.988, 192.0, 0.0, 0.0, 0.0, 0.0, 0.0, 0.0, 0.0, 0.0, 0.0, 1.7172380396175263E9, 0.0, 2024-06-01 03:33:59.617
232.0, 187500.0, -31429.279616985277, 187500.0, 187500.0, 187500.0, 187500.0, 187500.0, -91295.02967536804, 0.012, -0.02, 0.988, 192.0, 0.0, 0.0, 0.0, 0.0, 0.0, 0.0, 0.0, 0.0, 0.0, 1.717238039617538E9, 0.0, 2024-06-01 03:33:59.617
233.0, 187500.0, -31403.88803528405, 187500.0, 187500.0, 187500.0, 187500.0, 187500.0, -91287.96652412016, 0.012, -0.02, 0.988, 192.0, 0.0, 0.0, 0.0, 0.0, 0.0, 0.0, 0.0, 0.0, 0.0, 1.71723803961755E9, 0.0, 2024-06-01 03:33:59.617
234.0, 187500.0, -31394.54500610173, 187500.0, 187500.0, 187500.0, 187500.0, 187500.0, -91273.34848324639, 0.012, -0.02, 0.988, 192.0, 0.0, 0.0, 0.0, 0.0, 0.0, 0.0, 0.0, 0.0, 0.0, 1.717238039617562E9, 0.0, 2024-06-01 03:33:59.617
235.0, 187500.0, -31402.993965505837, 187500.0, 187500.0, 187500.0, 187500.0, 187500.0, -91262.15025927428, 0.012, -0.02, 0.988, 192.0, 0.0, 0.0, 0.0, 0.0, 0.0, 0.0, 0.0, 0.0, 0.0, 1.7172380396175737E9, 0.0, 2024-06-01 03:33:59.617
236.0, 187500.0, -31401.317584671688, 187500.0, 187500.0, 187500.0, 187500.0, 187500.0, -91261.1891342627, 0.022, -0.026000000000000002, 0.986, 192.0, 0.0, 176.0, 255.0, 48.0, 30.0, 208.0, 0.0, 0.0, 0.0, 1.7172380396175857E9, 0.0, 2024-06-01 03:33:59.617
237.0, 187500.0, -31390.812264777695, 187500.0, 187500.0, 187500.0, 187500.0, 187500.0, -91266.8441256099, 0.022, -0.026000000000000002, 0.986, 192.0, 0.0, 0.0, 0.0, 0.0, 0.0, 0.0, 0.0, 0.0, 0.0, 1.717238039617598E9, 0.0, 2024-06-01 03:33:59.617
238.0, 187500.0, -31380.26224139479, 187500.0, 187500.0, 187500.0, 187500.0, 187500.0, -91266.10651804287, 0.022, -0.026000000000000002, 0.986, 192.0, 0.0, 0.0, 0.0, 0.0, 0.0, 0.0, 0.0, 0.0, 0.0, 1.71723803961761E9, 0.0, 2024-06-01 03:33:59.617
239.0, 187500.0, -31385.760770530796, 187500.0, 187500.0, 187500.0, 187500.0, 187500.0, -91259.06571853945, 0.022, -0.026000000000000002, 0.986, 192.0, 0.0, 0.0, 0.0, 0.0, 0.0, 0.0, 0.0, 0.0, 0.0, 1.717238039617622E9, 0.0, 2024-06-01 03:33:59.617
240.0, 187500.0, -31393.78504679025, 187500.0, 187500.0, 187500.0, 187500.0, 187500.0, -91257.00935804956, 0.022, -0.026000000000000002, 0.986, 192.0, 0.0, 0.0, 0.0, 0.0, 0.0, 0.0, 0.0, 0.0, 0.0, 1.7172380396176336E9, 0.0, 2024-06-01 03:33:59.617
241.0, 187500.0, -31398.54596835923, 187500.0, 187500.0, 187500.0, 187500.0, 187500.0, -91270.04042506701, 0.022, -0.026000000000000002, 0.986, 192.0, 0.0, 0.0, 0.0, 0.0, 0.0, 0.0, 0.0, 0.0, 0.0, 1.7172380396176455E9, 0.0, 2024-06-01 03:33:59.617
242.0, 187500.0, -31386.900709498015, 187500.0, 187500.0, 187500.0, 187500.0, 187500.0, -91271.02390182303, 0.022, -0.026000000000000002, 0.986, 192.0, 0.0, 0.0, 0.0, 0.0, 0.0, 0.0, 0.0, 0.0, 0.0, 1.7172380396176577E9, 0.0, 2024-06-01 03:33:59.617
243.0, 187500.0, -31384.26320365229, 187500.0, 187500.0, 187500.0, 187500.0, 187500.0, -91251.71199461365, 0.022, -0.026000000000000002, 0.986, 192.0, 0.0, 0.0, 0.0, 0.0, 0.0, 0.0, 0.0, 0.0, 0.0, 1.7172380400954072E9, 0.0, 2024-06-01 03:34:00.095
244.0, 187500.0, -31384.442017607933, 187500.0, 187500.0, 187500.0, 187500.0, 187500.0, -91246.50403815557, 0.022, -0.026000000000000002, 0.986, 192.0, 0.0, 0.0, 0.0, 0.0, 0.0, 0.0, 0.0, 0.0, 0.0, 1.7172380400954578E9, 0.0, 2024-06-01 03:34:00.095
245.0, 187500.0, -31381.424532106466, 187500.0, 187500.0, 187500.0, 187500.0, 187500.0, -91259.22218075064, 0.022, -0.026000000000000002, 0.986, 192.0, 0.0, 0.0, 0.0, 0.0, 0.0, 0.0, 0.0, 0.0, 0.0, 1.717238040095487E9, 0.0, 2024-06-01 03:34:00.095
246.0, 187500.0, -31375.50131982581, 187500.0, 187500.0, 187500.0, 187500.0, 187500.0, -91259.11042202836, 0.016, -0.022, 0.98, 192.0, 0.0, 128.0, 255.0, 80.0, 30.0, 160.0, 0.0, 0.0, 0.0, 1.7172380400955164E9, 0.0, 2024-06-01 03:34:00.095
247.0, 187500.0, -31386.252508908812, 187500.0, 187500.0, 187500.0, 187500.0, 187500.0, -91255.4894394266, 0.016, -0.022, 0.98, 192.0, 0.0, 0.0, 0.0, 0.0, 0.0, 0.0, 0.0, 0.0, 0.0, 1.717238040095546E9, 0.0, 2024-06-01 03:34:00.095
248.0, 187500.0, -31394.813227035193, 187500.0, 187500.0, 187500.0, 187500.0, 187500.0, -91255.4894394266, 0.016, -0.022, 0.98, 192.0, 0.0, 0.0, 0.0, 0.0, 0.0, 0.0, 0.0, 0.0, 0.0, 1.717238040095575E9, 0.0, 2024-06-01 03:34:00.095
249.0, 187500.0, -31383.994982718825, 187500.0, 187500.0, 187500.0, 187500.0, 187500.0, -91266.91118084326, 0.016, -0.022, 0.98, 192.0, 0.0, 0.0, 0.0, 0.0, 0.0, 0.0, 0.0, 0.0, 0.0, 1.717238040095605E9, 0.0, 2024-06-01 03:34:00.095
250.0, 187500.0, -31376.90947972649, 187500.0, 187500.0, 187500.0, 187500.0, 187500.0, -91276.45537572568, 0.016, -0.022, 0.98, 192.0, 0.0, 0.0, 0.0, 0.0, 0.0, 0.0, 0.0, 0.0, 0.0, 1.7172380400956345E9, 0.0, 2024-06-01 03:34:00.095
251.0, 187500.0, -31377.758846015793, 187500.0, 187500.0, 187500.0, 187500.0, 187500.0, -91260.45152669567, 0.016, -0.022, 0.98, 192.0, 0.0, 0.0, 0.0, 0.0, 0.0, 0.0, 0.0, 0.0, 0.0, 1.717238040095657E9, 0.0, 2024-06-01 03:34:00.095
252.0, 187500.0, -31382.11743618458, 187500.0, 187500.0, 187500.0, 187500.0, 187500.0, -91241.1843229752, 0.016, -0.022, 0.98, 192.0, 0.0, 0.0, 0.0, 0.0, 0.0, 0.0, 0.0, 0.0, 0.0, 1.717238040095672E9, 0.0, 2024-06-01 03:34:00.095
253.0, 187500.0, -31380.84338675063, 187500.0, 187500.0, 187500.0, 187500.0, 187500.0, -91242.92775904272, 0.016, -0.022, 0.98, 192.0, 0.0, 0.0, 0.0, 0.0, 0.0, 0.0, 0.0, 0.0, 0.0, 1.7172380400956872E9, 0.0, 2024-06-01 03:34:00.095
254.0, 187500.0, -31375.16604365898, 187500.0, 187500.0, 187500.0, 187500.0, 187500.0, -91258.73044237262, 0.016, -0.022, 0.98, 192.0, 0.0, 0.0, 0.0, 0.0, 0.0, 0.0, 0.0, 0.0, 0.0, 1.717238040095702E9, 0.0, 2024-06-01 03:34:00.095
255.0, 187500.0, -31366.180642387946, 187500.0, 187500.0, 187500.0, 187500.0, 187500.0, -91248.87332306783, 0.016, -0.022, 0.98, 192.0, 0.0, 0.0, 0.0, 0.0, 0.0, 0.0, 0.0, 0.0, 0.0, 1.7172380400957167E9, 0.0, 2024-06-01 03:34:00.095
0.0, 187500.0, -31376.93183147095, 187500.0, 187500.0, 187500.0, 187500.0, 187500.0, -91238.09978224037, 0.016, -0.018000000000000002, 0.98, 192.0, 0.0, 128.0, 255.0, 112.0, 30.0, 160.0, 0.0, 0.0, 0.0, 1.7172380400957315E9, 0.0, 2024-06-01 03:34:00.095
1.0, 187500.0, -31396.154331702513, 187500.0, 187500.0, 187500.0, 187500.0, 187500.0, -91258.21635225015, 0.016, -0.018000000000000002, 0.98, 192.0, 0.0, 0.0, 0.0, 0.0, 0.0, 0.0, 0.0, 0.0, 0.0, 1.7172380400957472E9, 0.0, 2024-06-01 03:34:00.095
2.0, 187500.0, -31385.000811219314, 187500.0, 187500.0, 187500.0, 187500.0, 187500.0, -91267.91700934376, 0.016, -0.018000000000000002, 0.98, 192.0, 0.0, 0.0, 0.0, 0.0, 0.0, 0.0, 0.0, 0.0, 0.0, 1.7172380400957975E9, 0.0, 2024-06-01 03:34:00.095
3.0, 187500.0, -31363.096101653115, 187500.0, 187500.0, 187500.0, 187500.0, 187500.0, -91255.62354989334, 0.016, -0.018000000000000002, 0.98, 192.0, 0.0, 0.0, 0.0, 0.0, 0.0, 0.0, 0.0, 0.0, 0.0, 1.7172380400958135E9, 0.0, 2024-06-01 03:34:00.095
4.0, 187500.0, -31367.92407845546, 187500.0, 187500.0, 187500.0, 187500.0, 187500.0, -91250.54970390198, 0.016, -0.018000000000000002, 0.98, 192.0, 0.0, 0.0, 0.0, 0.0, 0.0, 0.0, 0.0, 0.0, 0.0, 1.7172380400958285E9, 0.0, 2024-06-01 03:34:00.095
5.0, 187500.0, -31383.2573751518, 187500.0, 187500.0, 187500.0, 187500.0, 187500.0, -91255.66825338225, 0.016, -0.018000000000000002, 0.98, 192.0, 0.0, 0.0, 0.0, 0.0, 0.0, 0.0, 0.0, 0.0, 0.0, 1.7172380400958436E9, 0.0, 2024-06-01 03:34:00.095
6.0, 187500.0, -31382.74328502933, 187500.0, 187500.0, 187500.0, 187500.0, 187500.0, -91263.40195696377, 0.016, -0.018000000000000002, 0.98, 192.0, 0.0, 0.0, 0.0, 0.0, 0.0, 0.0, 0.0, 0.0, 0.0, 1.7172380400958586E9, 0.0, 2024-06-01 03:34:00.095
7.0, 187500.0, -31371.58976454613, 187500.0, 187500.0, 187500.0, 187500.0, 187500.0, -91254.90829407076, 0.016, -0.018000000000000002, 0.98, 192.0, 0.0, 0.0, 0.0, 0.0, 0.0, 0.0, 0.0, 0.0, 0.0, 1.717238040095873E9, 0.0, 2024-06-01 03:34:00.095
8.0, 187500.0, -31370.427473834454, 187500.0, 187500.0, 187500.0, 187500.0, 187500.0, -91253.74600335909, 0.016, -0.018000000000000002, 0.98, 192.0, 0.0, 0.0, 0.0, 0.0, 0.0, 0.0, 0.0, 0.0, 0.0, 1.7172380400958881E9, 0.0, 2024-06-01 03:34:00.095
9.0, 187500.0, -31385.514901341787, 187500.0, 187500.0, 187500.0, 187500.0, 187500.0, -91258.1940005057, 0.016, -0.018000000000000002, 0.98, 192.0, 0.0, 0.0, 0.0, 0.0, 0.0, 0.0, 0.0, 0.0, 0.0, 1.7172380400959032E9, 0.0, 2024-06-01 03:34:00.095
10.0, 187500.0, -31381.983325717847, 187500.0, 187500.0, 187500.0, 187500.0, 187500.0, -91259.02101505054, 0.014, -0.016, 0.98, 192.0, 0.0, 112.0, 255.0, 128.0, 30.0, 160.0, 0.0, 0.0, 0.0, 1.717238040095918E9, 0.0, 2024-06-01 03:34:00.095
11.0, 187500.0, -31370.49452906782, 187500.0, 187500.0, 187500.0, 187500.0, 187500.0, -91255.66825338225, 0.014, -0.016, 0.98, 192.0, 0.0, 0.0, 0.0, 0.0, 0.0, 0.0, 0.0, 0.0, 0.0, 1.717238040095934E9, 0.0, 2024-06-01 03:34:00.095
12.0, 187500.0, -31367.58880228863, 187500.0, 187500.0, 187500.0, 187500.0, 187500.0, -91252.67311962524, 0.014, -0.016, 0.98, 192.0, 0.0, 0.0, 0.0, 0.0, 0.0, 0.0, 0.0, 0.0, 0.0, 1.717238040095949E9, 0.0, 2024-06-01 03:34:00.095
13.0, 187500.0, -31376.842424493127, 187500.0, 187500.0, 187500.0, 187500.0, 187500.0, -91246.2358172221, 0.014, -0.016, 0.98, 192.0, 0.0, 0.0, 0.0, 0.0, 0.0, 0.0, 0.0, 0.0, 0.0, 1.7172380400959637E9, 0.0, 2024-06-01 03:34:00.095
14.0, 187500.0, -31382.475064095863, 187500.0, 187500.0, 187500.0, 187500.0, 187500.0, -91253.9918725481, 0.014, -0.016, 0.98, 192.0, 0.0, 0.0, 0.0, 0.0, 0.0, 0.0, 0.0, 0.0, 0.0, 1.7172380400959785E9, 0.0, 2024-06-01 03:34:00.095
15.0, 187500.0, -31371.947392457416, 187500.0, 187500.0, 187500.0, 187500.0, 187500.0, -91267.58173317692, 0.014, -0.016, 0.98, 192.0, 0.0, 0.0, 0.0, 0.0, 0.0, 0.0, 0.0, 0.0, 0.0, 1.7172380400959935E9, 0.0, 2024-06-01 03:34:00.095
16.0, 187500.0, -31368.035837177737, 187500.0, 187500.0, 187500.0, 187500.0, 187500.0, -91264.16191627526, 0.014, -0.016, 0.98, 192.0, 0.0, 0.0, 0.0, 0.0, 0.0, 0.0, 0.0, 0.0, 0.0, 1.7172380400960083E9, 0.0, 2024-06-01 03:34:00.096
17.0, 187500.0, -31370.941563956927, 187500.0, 187500.0, 187500.0, 187500.0, 187500.0, -91254.05892778146, 0.014, -0.016, 0.98, 192.0, 0.0, 0.0, 0.0, 0.0, 0.0, 0.0, 0.0, 0.0, 0.0, 1.7172380400960352E9, 0.0, 2024-06-01 03:34:00.096
18.0, 187500.0, -31371.2544883793, 187500.0, 187500.0, 187500.0, 187500.0, 187500.0, -91257.63520689431, 0.014, -0.016, 0.98, 192.0, 0.0, 0.0, 0.0, 0.0, 0.0, 0.0, 0.0, 0.0, 0.0, 1.7172380400960503E9, 0.0, 2024-06-01 03:34:00.096
19.0, 187500.0, -31365.77831098775, 187500.0, 187500.0, 187500.0, 187500.0, 187500.0, -91264.25132325308, 0.014, -0.016, 0.98, 192.0, 0.0, 0.0, 0.0, 0.0, 0.0, 0.0, 0.0, 0.0, 0.0, 1.7172380400960653E9, 0.0, 2024-06-01 03:34:00.096
20.0, 187500.0, -31364.81718597617, 187500.0, 187500.0, 187500.0, 187500.0, 187500.0, -91257.85872433886, 0.024, -0.014, 0.98, 192.0, 0.0, 192.0, 255.0, 144.0, 30.0, 160.0, 0.0, 0.0, 0.0, 1.71723804009608E9, 0.0, 2024-06-01 03:34:00.096
21.0, 187500.0, -31376.149520415012, 187500.0, 187500.0, 187500.0, 187500.0, 187500.0, -91257.27757898302, 0.024, -0.014, 0.98, 192.0, 0.0, 0.0, 0.0, 0.0, 0.0, 0.0, 0.0, 0.0, 0.0, 1.7172380400960956E9, 0.0, 2024-06-01 03:34:00.096
22.0, 187500.0, -31376.194223903924, 187500.0, 187500.0, 187500.0, 187500.0, 187500.0, -91257.1434685163, 0.024, -0.014, 0.98, 192.0, 0.0, 0.0, 0.0, 0.0, 0.0, 0.0, 0.0, 0.0, 0.0, 1.7172380400961103E9, 0.0, 2024-06-01 03:34:00.096
23.0, 187500.0, -31367.745264499816, 187500.0, 187500.0, 187500.0, 187500.0, 187500.0, -91259.6468638953, 0.024, -0.014, 0.98, 192.0, 0.0, 0.0, 0.0, 0.0, 0.0, 0.0, 0.0, 0.0, 0.0, 1.7172380400961256E9, 0.0, 2024-06-01 03:34:00.096
24.0, 187500.0, -31364.325447598156, 187500.0, 187500.0, 187500.0, 187500.0, 187500.0, -91255.51179117105, 0.024, -0.014, 0.98, 192.0, 0.0, 0.0, 0.0, 0.0, 0.0, 0.0, 0.0, 0.0, 0.0, 1.7172380400961404E9, 0.0, 2024-06-01 03:34:00.096
25.0, 187500.0, -31375.0542849367, 187500.0, 187500.0, 187500.0, 187500.0, 187500.0, -91257.00935804956, 0.024, -0.014, 0.98, 192.0, 0.0, 0.0, 0.0, 0.0, 0.0, 0.0, 0.0, 0.0, 0.0, 1.7172380400961552E9, 0.0, 2024-06-01 03:34:00.096
26.0, 187500.0, -31388.375924632066, 187500.0, 187500.0, 187500.0, 187500.0, 187500.0, -91264.89952384228, 0.024, -0.014, 0.98, 192.0, 0.0, 0.0, 0.0, 0.0, 0.0, 0.0, 0.0, 0.0, 0.0, 1.71723804009617E9, 0.0, 2024-06-01 03:34:00.096
27.0, 187500.0, -31380.374000117066, 187500.0, 187500.0, 187500.0, 187500.0, 187500.0, -91268.00641632157, 0.024, -0.014, 0.98, 192.0, 0.0, 0.0, 0.0, 0.0, 0.0, 0.0, 0.0, 0.0, 0.0, 1.7172380400961847E9, 0.0, 2024-06-01 03:34:00.096
28.0, 187500.0, -31371.321543612667, 187500.0, 187500.0, 187500.0, 187500.0, 187500.0, -91268.76637563306, 0.024, -0.014, 0.98, 192.0, 0.0, 0.0, 0.0, 0.0, 0.0, 0.0, 0.0, 0.0, 0.0, 1.7172380400961995E9, 0.0, 2024-06-01 03:34:00.096
29.0, 187500.0, -31376.48479658184, 187500.0, 187500.0, 187500.0, 187500.0, 187500.0, -91263.33490173041, 0.024, -0.014, 0.98, 192.0, 0.0, 0.0, 0.0, 0.0, 0.0, 0.0, 0.0, 0.0, 0.0, 1.7172380400962143E9, 0.0, 2024-06-01 03:34:00.096
30.0, 187500.0, -31377.98236346035, 187500.0, 187500.0, 187500.0, 187500.0, 187500.0, -91257.50109642757, 0.02, -0.016, 0.984, 192.0, 0.0, 160.0, 255.0, 128.0, 30.0, 192.0, 0.0, 0.0, 0.0, 1.7172380400962293E9, 0.0, 2024-06-01 03:34:00.096
31.0, 187500.0, -31371.500357568308, 187500.0, 187500.0, 187500.0, 187500.0, 187500.0, -91259.78097436202, 0.02, -0.016, 0.984, 192.0, 0.0, 0.0, 0.0, 0.0, 0.0, 0.0, 0.0, 0.0, 0.0, 1.7172380400962448E9, 0.0, 2024-06-01 03:34:00.096
32.0, 187500.0, -31365.77831098775, 187500.0, 187500.0, 187500.0, 187500.0, 187500.0, -91256.15999176026, 0.02, -0.016, 0.984, 192.0, 0.0, 0.0, 0.0, 0.0, 0.0, 0.0, 0.0, 0.0, 0.0, 1.7172380400963228E9, 0.0, 2024-06-01 03:34:00.096
33.0, 187500.0, -31368.05818892219, 187500.0, 187500.0, 187500.0, 187500.0, 187500.0, -91245.47585791063, 0.02, -0.016, 0.984, 192.0, 0.0, 0.0, 0.0, 0.0, 0.0, 0.0, 0.0, 0.0, 0.0, 1.7172380400963385E9, 0.0, 2024-06-01 03:34:00.096
34.0, 187500.0, -31382.765636773784, 187500.0, 187500.0, 187500.0, 187500.0, 187500.0, -91253.00839579206, 0.02, -0.016, 0.984, 192.0, 0.0, 0.0, 0.0, 0.0, 0.0, 0.0, 0.0, 0.0, 0.0, 1.7172380400963533E9, 0.0, 2024-06-01 03:34:00.096
35.0, 187500.0, -31379.926965227958, 187500.0, 187500.0, 187500.0, 187500.0, 187500.0, -91260.65269239577, 0.02, -0.016, 0.984, 192.0, 0.0, 0.0, 0.0, 0.0, 0.0, 0.0, 0.0, 0.0, 0.0, 1.7172380400963683E9, 0.0, 2024-06-01 03:34:00.096
36.0, 187500.0, -31361.53147954124, 187500.0, 187500.0, 187500.0, 187500.0, 187500.0, -91260.20565750667, 0.02, -0.016, 0.984, 192.0, 0.0, 0.0, 0.0, 0.0, 0.0, 0.0, 0.0, 0.0, 0.0, 1.717238040096383E9, 0.0, 2024-06-01 03:34:00.096
37.0, 187500.0, -31365.77831098775, 187500.0, 187500.0, 187500.0, 187500.0, 187500.0, -91257.65755863876, 0.02, -0.016, 0.984, 192.0, 0.0, 0.0, 0.0, 0.0, 0.0, 0.0, 0.0, 0.0, 0.0, 1.717238040096398E9, 0.0, 2024-06-01 03:34:00.096
38.0, 187500.0, -31373.713180269384, 187500.0, 187500.0, 187500.0, 187500.0, 187500.0, -91256.31645397145, 0.02, -0.016, 0.984, 192.0, 0.0, 0.0, 0.0, 0.0, 0.0, 0.0, 0.0, 0.0, 0.0, 1.717238040096413E9, 0.0, 2024-06-01 03:34:00.096
39.0, 187500.0, -31364.571316787165, 187500.0, 187500.0, 187500.0, 187500.0, 187500.0, -91257.00935804956, 0.018000000000000002, -0.018000000000000002, 0.978, 192.0, 0.0, 144.0, 255.0, 112.0, 30.0, 144.0, 0.0, 0.0, 0.0, 1.717238040096428E9, 0.0, 2024-06-01 03:34:00.096
40.0, 187500.0, -31354.15540387099, 187500.0, 187500.0, 187500.0, 187500.0, 187500.0, -91249.40976493475, 0.018000000000000002, -0.018000000000000002, 0.978, 192.0, 0.0, 0.0, 0.0, 0.0, 0.0, 0.0, 0.0, 0.0, 0.0, 1.7172380400964434E9, 0.0, 2024-06-01 03:34:00.096
41.0, 187500.0, -31353.797775959705, 187500.0, 187500.0, 187500.0, 187500.0, 187500.0, -91247.80043933398, 0.018000000000000002, -0.018000000000000002, 0.978, 192.0, 0.0, 0.0, 0.0, 0.0, 0.0, 0.0, 0.0, 0.0, 0.0, 1.7172380400964582E9, 0.0, 2024-06-01 03:34:00.096
42.0, 187500.0, -31353.10487188159, 187500.0, 187500.0, 187500.0, 187500.0, 187500.0, -91243.66536660974, 0.018000000000000002, -0.018000000000000002, 0.978, 192.0, 0.0, 0.0, 0.0, 0.0, 0.0, 0.0, 0.0, 0.0, 0.0, 1.7172380400964732E9, 0.0, 2024-06-01 03:34:00.096
43.0, 187500.0, -31364.325447598156, 187500.0, 187500.0, 187500.0, 187500.0, 187500.0, -91252.36019520285, 0.018000000000000002, -0.018000000000000002, 0.978, 192.0, 0.0, 0.0, 0.0, 0.0, 0.0, 0.0, 0.0, 0.0, 0.0, 1.7172380400964885E9, 0.0, 2024-06-01 03:34:00.096
44.0, 187500.0, -31369.466348822876, 187500.0, 187500.0, 187500.0, 187500.0, 187500.0, -91258.77514586152, 0.018000000000000002, -0.018000000000000002, 0.978, 192.0, 0.0, 0.0, 0.0, 0.0, 0.0, 0.0, 0.0, 0.0, 0.0, 1.7172380400965033E9, 0.0, 2024-06-01 03:34:00.096
45.0, 187500.0, -31362.403197575, 187500.0, 187500.0, 187500.0, 187500.0, 187500.0, -91250.1920759907, 0.018000000000000002, -0.018000000000000002, 0.978, 192.0, 0.0, 0.0, 0.0, 0.0, 0.0, 0.0, 0.0, 0.0, 0.0, 1.717238040096518E9, 0.0, 2024-06-01 03:34:00.096
46.0, 187500.0, -31363.364322586578, 187500.0, 187500.0, 187500.0, 187500.0, 187500.0, -91247.12988700031, 0.018000000000000002, -0.018000000000000002, 0.978, 192.0, 0.0, 0.0, 0.0, 0.0, 0.0, 0.0, 0.0, 0.0, 0.0, 1.7172380400965328E9, 0.0, 2024-06-01 03:34:00.096
47.0, 187500.0, -31371.701523268406, 187500.0, 187500.0, 187500.0, 187500.0, 187500.0, -91261.5914656629, 0.018000000000000002, -0.018000000000000002, 0.978, 192.0, 0.0, 0.0, 0.0, 0.0, 0.0, 0.0, 0.0, 0.0, 0.0, 1.7172380400965476E9, 0.0, 2024-06-01 03:34:00.096
48.0, 187500.0, -31360.92798244095, 187500.0, 187500.0, 187500.0, 187500.0, 187500.0, -91259.26688423955, 0.018000000000000002, -0.018000000000000002, 0.978, 192.0, 0.0, 0.0, 0.0, 0.0, 0.0, 0.0, 0.0, 0.0, 0.0, 1.7172380400965734E9, 0.0, 2024-06-01 03:34:00.096
49.0, 187500.0, -31353.708368981883, 187500.0, 187500.0, 187500.0, 187500.0, 187500.0, -91247.8898463118, 0.022, -0.016, 0.98, 192.0, 0.0, 176.0, 255.0, 128.0, 30.0, 160.0, 0.0, 0.0, 0.0, 1.7172380400965884E9, 0.0, 2024-06-01 03:34:00.096
50.0, 187500.0, -31365.845366221118, 187500.0, 187500.0, 187500.0, 187500.0, 187500.0, -91248.3368812009, 0.022, -0.016, 0.98, 192.0, 0.0, 0.0, 0.0, 0.0, 0.0, 0.0, 0.0, 0.0, 0.0, 1.717238040096604E9, 0.0, 2024-06-01 03:34:00.096
51.0, 187500.0, -31379.54698557222, 187500.0, 187500.0, 187500.0, 187500.0, 187500.0, -91252.7848783475, 0.022, -0.016, 0.98, 192.0, 0.0, 0.0, 0.0, 0.0, 0.0, 0.0, 0.0, 0.0, 0.0, 1.7172380400966191E9, 0.0, 2024-06-01 03:34:00.096
52.0, 187500.0, -31375.97070645937, 187500.0, 187500.0, 187500.0, 187500.0, 187500.0, -91253.1425062588, 0.022, -0.016, 0.98, 192.0, 0.0, 0.0, 0.0, 0.0, 0.0, 0.0, 0.0, 0.0, 0.0, 1.717238040096634E9, 0.0, 2024-06-01 03:34:00.096
53.0, 187500.0, -31364.83953772063, 187500.0, 187500.0, 187500.0, 187500.0, 187500.0, -91249.29800621248, 0.022, -0.016, 0.98, 192.0, 0.0, 0.0, 0.0, 0.0, 0.0, 0.0, 0.0, 0.0, 0.0, 1.7172380400966487E9, 0.0, 2024-06-01 03:34:00.096
54.0, 187500.0, -31361.710293496883, 187500.0, 187500.0, 187500.0, 187500.0, 187500.0, -91248.3815846898, 0.022, -0.016, 0.98, 192.0, 0.0, 0.0, 0.0, 0.0, 0.0, 0.0, 0.0, 0.0, 0.0, 1.7172380400966637E9, 0.0, 2024-06-01 03:34:00.096
55.0, 187500.0, -31365.487738309832, 187500.0, 187500.0, 187500.0, 187500.0, 187500.0, -91252.36019520285, 0.022, -0.016, 0.98, 192.0, 0.0, 0.0, 0.0, 0.0, 0.0, 0.0, 0.0, 0.0, 0.0, 1.7172380400966785E9, 0.0, 2024-06-01 03:34:00.096
56.0, 187500.0, -31363.945467942416, 187500.0, 187500.0, 187500.0, 187500.0, 187500.0, -91258.55162841697, 0.022, -0.016, 0.98, 192.0, 0.0, 0.0, 0.0, 0.0, 0.0, 0.0, 0.0, 0.0, 0.0, 1.7172380400966933E9, 0.0, 2024-06-01 03:34:00.096
57.0, 187500.0, -31358.961028928883, 187500.0, 187500.0, 187500.0, 187500.0, 187500.0, -91257.81402084995, 0.022, -0.016, 0.98, 192.0, 0.0, 0.0, 0.0, 0.0, 0.0, 0.0, 0.0, 0.0, 0.0, 1.717238040096708E9, 0.0, 2024-06-01 03:34:00.096
58.0, 187500.0, -31364.995999931816, 187500.0, 187500.0, 187500.0, 187500.0, 187500.0, -91258.97631156162, 0.022, -0.016, 0.98, 192.0, 0.0, 0.0, 0.0, 0.0, 0.0, 0.0, 0.0, 0.0, 0.0, 1.7172380400967226E9, 0.0, 2024-06-01 03:34:00.096
59.0, 187500.0, -31376.753017515304, 187500.0, 187500.0, 187500.0, 187500.0, 187500.0, -91265.72653838713, 0.02, -0.024, 0.98, 192.0, 0.0, 160.0, 255.0, 64.0, 30.0, 160.0, 0.0, 0.0, 0.0, 1.7172380400967374E9, 0.0, 2024-06-01 03:34:00.096
60.0, 187500.0, -31371.41095059049, 187500.0, 187500.0, 187500.0, 187500.0, 187500.0, -91260.80915460696, 0.02, -0.024, 0.98, 192.0, 0.0, 0.0, 0.0, 0.0, 0.0, 0.0, 0.0, 0.0, 0.0, 1.717238040096753E9, 0.0, 2024-06-01 03:34:00.096
61.0, 187500.0, -31359.363360329076, 187500.0, 187500.0, 187500.0, 187500.0, 187500.0, -91246.034651522, 0.02, -0.024, 0.98, 192.0, 0.0, 0.0, 0.0, 0.0, 0.0, 0.0, 0.0, 0.0, 0.0, 1.717238040096768E9, 0.0, 2024-06-01 03:34:00.096
62.0, 187500.0, -31354.423624804454, 187500.0, 187500.0, 187500.0, 187500.0, 187500.0, -91238.2338927071, 0.02, -0.024, 0.98, 192.0, 0.0, 0.0, 0.0, 0.0, 0.0, 0.0, 0.0, 0.0, 0.0, 1.7172380400967827E9, 0.0, 2024-06-01 03:34:00.096
63.0, 187500.0, -31365.01835167627, 187500.0, 187500.0, 187500.0, 187500.0, 187500.0, -91242.8830555538, 0.02, -0.024, 0.98, 192.0, 0.0, 0.0, 0.0, 0.0, 0.0, 0.0, 0.0, 0.0, 0.0, 1.717238040096806E9, 0.0, 2024-06-01 03:34:00.096
64.0, 187500.0, -31369.220479633866, 187500.0, 187500.0, 187500.0, 187500.0, 187500.0, -91252.5837126474, 0.02, -0.024, 0.98, 192.0, 0.0, 0.0, 0.0, 0.0, 0.0, 0.0, 0.0, 0.0, 0.0, 1.7172380400968177E9, 0.0, 2024-06-01 03:34:00.096
65.0, 187500.0, -31357.619924261562, 187500.0, 187500.0, 187500.0, 187500.0, 187500.0, -91254.34950045939, 0.02, -0.024, 0.98, 192.0, 0.0, 0.0, 0.0, 0.0, 0.0, 0.0, 0.0, 0.0, 0.0, 1.71723804009683E9, 0.0, 2024-06-01 03:34:00.096
66.0, 187500.0, -31352.031988147737, 187500.0, 187500.0, 187500.0, 187500.0, 187500.0, -91254.37185220384, 0.02, -0.024, 0.98, 192.0, 0.0, 0.0, 0.0, 0.0, 0.0, 0.0, 0.0, 0.0, 0.0, 1.717238040096842E9, 0.0, 2024-06-01 03:34:00.096
67.0, 187500.0, -31355.63061900504, 187500.0, 187500.0, 187500.0, 187500.0, 187500.0, -91256.96465456065, 0.02, -0.024, 0.98, 192.0, 0.0, 0.0, 0.0, 0.0, 0.0, 0.0, 0.0, 0.0, 0.0, 1.717238040096854E9, 0.0, 2024-06-01 03:34:00.096
68.0, 187500.0, -31371.321543612667, 187500.0, 187500.0, 187500.0, 187500.0, 187500.0, -91269.01224482206, 0.02, -0.024, 0.98, 192.0, 0.0, 0.0, 0.0, 0.0, 0.0, 0.0, 0.0, 0.0, 0.0, 1.717238040096866E9, 0.0, 2024-06-01 03:34:00.096
69.0, 187500.0, -31369.466348822876, 187500.0, 187500.0, 187500.0, 187500.0, 187500.0, -91274.77899489153, 0.02, -0.026000000000000002, 0.982, 192.0, 0.0, 160.0, 255.0, 48.0, 30.0, 176.0, 0.0, 0.0, 0.0, 1.7172380400968776E9, 0.0, 2024-06-01 03:34:00.096
70.0, 187500.0, -31367.11941565507, 187500.0, 187500.0, 187500.0, 187500.0, 187500.0, -91269.66044541127, 0.02, -0.026000000000000002, 0.982, 192.0, 0.0, 0.0, 0.0, 0.0, 0.0, 0.0, 0.0, 0.0, 0.0, 1.71723804009689E9, 0.0, 2024-06-01 03:34:00.096
71.0, 187500.0, -31375.858947737095, 187500.0, 187500.0, 187500.0, 187500.0, 187500.0, -91267.71584364366, 0.02, -0.026000000000000002, 0.982, 192.0, 0.0, 0.0, 0.0, 0.0, 0.0, 0.0, 0.0, 0.0, 0.0, 1.717238040096902E9, 0.0, 2024-06-01 03:34:00.096
72.0, 187500.0, -31381.044552450723, 187500.0, 187500.0, 187500.0, 187500.0, 187500.0, -91275.33778850292, 0.02, -0.026000000000000002, 0.982, 192.0, 0.0, 0.0, 0.0, 0.0, 0.0, 0.0, 0.0, 0.0, 0.0, 1.7172380400969138E9, 0.0, 2024-06-01 03:34:00.096
73.0, 187500.0, -31373.48966282483, 187500.0, 187500.0, 187500.0, 187500.0, 187500.0, -91276.16480304777, 0.02, -0.026000000000000002, 0.982, 192.0, 0.0, 0.0, 0.0, 0.0, 0.0, 0.0, 0.0, 0.0, 0.0, 1.7172380400969255E9, 0.0, 2024-06-01 03:34:00.096
74.0, 187500.0, -31362.626715019553, 187500.0, 187500.0, 187500.0, 187500.0, 187500.0, -91261.9937970631, 0.02, -0.026000000000000002, 0.982, 192.0, 0.0, 0.0, 0.0, 0.0, 0.0, 0.0, 0.0, 0.0, 0.0, 1.7172380400969374E9, 0.0, 2024-06-01 03:34:00.096
75.0, 187500.0, -31364.101930153603, 187500.0, 187500.0, 187500.0, 187500.0, 187500.0, -91252.36019520285, 0.02, -0.026000000000000002, 0.982, 192.0, 0.0, 0.0, 0.0, 0.0, 0.0, 0.0, 0.0, 0.0, 0.0, 1.717238040096949E9, 0.0, 2024-06-01 03:34:00.096
76.0, 187500.0, -31364.16898538697, 187500.0, 187500.0, 187500.0, 187500.0, 187500.0, -91253.76835510354, 0.02, -0.026000000000000002, 0.982, 192.0, 0.0, 0.0, 0.0, 0.0, 0.0, 0.0, 0.0, 0.0, 0.0, 1.7172380400969613E9, 0.0, 2024-06-01 03:34:00.096
77.0, 187500.0, -31362.71612199737, 187500.0, 187500.0, 187500.0, 187500.0, 187500.0, -91266.37473897633, 0.02, -0.026000000000000002, 0.982, 192.0, 0.0, 0.0, 0.0, 0.0, 0.0, 0.0, 0.0, 0.0, 0.0, 1.7172380400969727E9, 0.0, 2024-06-01 03:34:00.096
78.0, 187500.0, -31357.9999039173, 187500.0, 187500.0, 187500.0, 187500.0, 187500.0, -91258.05989003896, 0.02, -0.026000000000000002, 0.982, 192.0, 0.0, 0.0, 0.0, 0.0, 0.0, 0.0, 0.0, 0.0, 0.0, 1.7172380400969925E9, 0.0, 2024-06-01 03:34:00.096
79.0, 187500.0, -31359.2516016068, 187500.0, 187500.0, 187500.0, 187500.0, 187500.0, -91258.08224178341, 0.018000000000000002, -0.026000000000000002, 0.986, 192.0, 0.0, 144.0, 255.0, 48.0, 30.0, 208.0, 0.0, 0.0, 0.0, 1.7172380400970044E9, 0.0, 2024-06-01 03:34:00.097
80.0, 187500.0, -31361.665590007975, 187500.0, 187500.0, 187500.0, 187500.0, 187500.0, -91262.1949627632, 0.018000000000000002, -0.026000000000000002, 0.986, 192.0, 0.0, 0.0, 0.0, 0.0, 0.0, 0.0, 0.0, 0.0, 0.0, 1.7172380400970168E9, 0.0, 2024-06-01 03:34:00.097
81.0, 187500.0, -31359.29630509571, 187500.0, 187500.0, 187500.0, 187500.0, 187500.0, -91269.19105877771, 0.018000000000000002, -0.026000000000000002, 0.986, 192.0, 0.0, 0.0, 0.0, 0.0, 0.0, 0.0, 0.0, 0.0, 0.0, 1.7172380400970285E9, 0.0, 2024-06-01 03:34:00.097
82.0, 187500.0, -31352.411967803477, 187500.0, 187500.0, 187500.0, 187500.0, 187500.0, -91263.73723313061, 0.018000000000000002, -0.026000000000000002, 0.986, 192.0, 0.0, 0.0, 0.0, 0.0, 0.0, 0.0, 0.0, 0.0, 0.0, 1.7172380400970404E9, 0.0, 2024-06-01 03:34:00.097
83.0, 187500.0, -31360.704464996397, 187500.0, 187500.0, 187500.0, 187500.0, 187500.0, -91259.40099470627, 0.018000000000000002, -0.026000000000000002, 0.986, 192.0, 0.0, 0.0, 0.0, 0.0, 0.0, 0.0, 0.0, 0.0, 0.0, 1.717238040097052E9, 0.0, 2024-06-01 03:34:00.097
84.0, 187500.0, -31371.433302334943, 187500.0, 187500.0, 187500.0, 187500.0, 187500.0, -91260.07154703994, 0.018000000000000002, -0.026000000000000002, 0.986, 192.0, 0.0, 0.0, 0.0, 0.0, 0.0, 0.0, 0.0, 0.0, 0.0, 1.7172380400970645E9, 0.0, 2024-06-01 03:34:00.097
85.0, 187500.0, -31363.72195049786, 187500.0, 187500.0, 187500.0, 187500.0, 187500.0, -91265.74889013158, 0.018000000000000002, -0.026000000000000002, 0.986, 192.0, 0.0, 0.0, 0.0, 0.0, 0.0, 0.0, 0.0, 0.0, 0.0, 1.717238040097076E9, 0.0, 2024-06-01 03:34:00.097
86.0, 187500.0, -31350.936752669426, 187500.0, 187500.0, 187500.0, 187500.0, 187500.0, -91261.36794821835, 0.018000000000000002, -0.026000000000000002, 0.986, 192.0, 0.0, 0.0, 0.0, 0.0, 0.0, 0.0, 0.0, 0.0, 0.0, 1.7172380400970879E9, 0.0, 2024-06-01 03:34:00.097
87.0, 187500.0, -31356.39057831652, 187500.0, 187500.0, 187500.0, 187500.0, 187500.0, -91254.90829407076, 0.018000000000000002, -0.026000000000000002, 0.986, 192.0, 0.0, 0.0, 0.0, 0.0, 0.0, 0.0, 0.0, 0.0, 0.0, 1.7172380400970995E9, 0.0, 2024-06-01 03:34:00.097
88.0, 187500.0, -31365.06305516518, 187500.0, 187500.0, 187500.0, 187500.0, 187500.0, -91257.29993072747, 0.018000000000000002, -0.026000000000000002, 0.986, 192.0, 0.0, 0.0, 0.0, 0.0, 0.0, 0.0, 0.0, 0.0, 0.0, 1.7172380400971115E9, 0.0, 2024-06-01 03:34:00.097
89.0, 187500.0, -31362.269087108267, 187500.0, 187500.0, 187500.0, 187500.0, 187500.0, -91263.82664010843, 0.02, -0.022, 0.984, 192.0, 0.0, 160.0, 255.0, 80.0, 30.0, 192.0, 0.0, 0.0, 0.0, 1.7172380400971231E9, 0.0, 2024-06-01 03:34:00.097
90.0, 187500.0, -31350.377959058045, 187500.0, 187500.0, 187500.0, 187500.0, 187500.0, -91264.27367499753, 0.02, -0.022, 0.984, 192.0, 0.0, 0.0, 0.0, 0.0, 0.0, 0.0, 0.0, 0.0, 0.0, 1.7172380400971355E9, 0.0, 2024-06-01 03:34:00.097
91.0, 187500.0, -31349.148613113, 187500.0, 187500.0, 187500.0, 187500.0, 187500.0, -91256.31645397145, 0.02, -0.022, 0.984, 192.0, 0.0, 0.0, 0.0, 0.0, 0.0, 0.0, 0.0, 0.0, 0.0, 1.7172380400971477E9, 0.0, 2024-06-01 03:34:00.097
92.0, 187500.0, -31358.312828339676, 187500.0, 187500.0, 187500.0, 187500.0, 187500.0, -91256.04823303799, 0.02, -0.022, 0.984, 192.0, 0.0, 0.0, 0.0, 0.0, 0.0, 0.0, 0.0, 0.0, 0.0, 1.7172380400971591E9, 0.0, 2024-06-01 03:34:00.097
93.0, 187500.0, -31355.183584115934, 187500.0, 187500.0, 187500.0, 187500.0, 187500.0, -91250.66146262425, 0.02, -0.022, 0.984, 192.0, 0.0, 0.0, 0.0, 0.0, 0.0, 0.0, 0.0, 0.0, 0.0, 1.7172380400971782E9, 0.0, 2024-06-01 03:34:00.097
94.0, 187500.0, -31351.58495325863, 187500.0, 187500.0, 187500.0, 187500.0, 187500.0, -91255.4447359377, 0.02, -0.022, 0.984, 192.0, 0.0, 0.0, 0.0, 0.0, 0.0, 0.0, 0.0, 0.0, 0.0, 1.7172380400971901E9, 0.0, 2024-06-01 03:34:00.097
95.0, 187500.0, -31351.02615964725, 187500.0, 187500.0, 187500.0, 187500.0, 187500.0, -91262.32907322992, 0.02, -0.022, 0.984, 192.0, 0.0, 0.0, 0.0, 0.0, 0.0, 0.0, 0.0, 0.0, 0.0, 1.717238040097202E9, 0.0, 2024-06-01 03:34:00.097
96.0, 187500.0, -31353.596610259607, 187500.0, 187500.0, 187500.0, 187500.0, 187500.0, -91259.13277377281, 0.02, -0.022, 0.984, 192.0, 0.0, 0.0, 0.0, 0.0, 0.0, 0.0, 0.0, 0.0, 0.0, 1.7172380400972142E9, 0.0, 2024-06-01 03:34:00.097
97.0, 187500.0, -31362.224383619356, 187500.0, 187500.0, 187500.0, 187500.0, 187500.0, -91263.67017789725, 0.02, -0.022, 0.984, 192.0, 0.0, 0.0, 0.0, 0.0, 0.0, 0.0, 0.0, 0.0, 0.0, 1.717238040097226E9, 0.0, 2024-06-01 03:34:00.097
98.0, 187500.0, -31359.810395218185, 187500.0, 187500.0, 187500.0, 187500.0, 187500.0, -91265.27950349802, 0.02, -0.022, 0.984, 192.0, 0.0, 0.0, 0.0, 0.0, 0.0, 0.0, 0.0, 0.0, 0.0, 1.7172380400972378E9, 0.0, 2024-06-01 03:34:00.097
99.0, 187500.0, -31352.188450358924, 187500.0, 187500.0, 187500.0, 187500.0, 187500.0, -91266.66531165426, 0.012, -0.022, 0.984, 192.0, 0.0, 96.0, 255.0, 80.0, 30.0, 192.0, 0.0, 0.0, 0.0, 1.7172380400972495E9, 0.0, 2024-06-01 03:34:00.097
100.0, 187500.0, -31361.48677605233, 187500.0, 187500.0, 187500.0, 187500.0, 187500.0, -91266.10651804287, 0.012, -0.022, 0.984, 192.0, 0.0, 0.0, 0.0, 0.0, 0.0, 0.0, 0.0, 0.0, 0.0, 1.717238040097262E9, 0.0, 2024-06-01 03:34:00.097
101.0, 187500.0, -31362.11262489708, 187500.0, 187500.0, 187500.0, 187500.0, 187500.0, -91256.89759932729, 0.012, -0.022, 0.984, 192.0, 0.0, 0.0, 0.0, 0.0, 0.0, 0.0, 0.0, 0.0, 0.0, 1.7172380400972736E9, 0.0, 2024-06-01 03:34:00.097
102.0, 187500.0, -31355.898839938505, 187500.0, 187500.0, 187500.0, 187500.0, 187500.0, -91268.58756167741, 0.012, -0.022, 0.984, 192.0, 0.0, 0.0, 0.0, 0.0, 0.0, 0.0, 0.0, 0.0, 0.0, 1.7172380400972855E9, 0.0, 2024-06-01 03:34:00.097
103.0, 187500.0, -31351.2496770918, 187500.0, 187500.0, 187500.0, 187500.0, 187500.0, -91264.29602674198, 0.012, -0.022, 0.984, 192.0, 0.0, 0.0, 0.0, 0.0, 0.0, 0.0, 0.0, 0.0, 0.0, 1.7172380400972972E9, 0.0, 2024-06-01 03:34:00.097
104.0, 187500.0, -31359.788043473727, 187500.0, 187500.0, 187500.0, 187500.0, 187500.0, -91265.3912622203, 0.012, -0.022, 0.984, 192.0, 0.0, 0.0, 0.0, 0.0, 0.0, 0.0, 0.0, 0.0, 0.0, 1.717238040097309E9, 0.0, 2024-06-01 03:34:00.097
105.0, 187500.0, -31368.080540666648, 187500.0, 187500.0, 187500.0, 187500.0, 187500.0, -91272.16384079026, 0.012, -0.022, 0.984, 192.0, 0.0, 0.0, 0.0, 0.0, 0.0, 0.0, 0.0, 0.0, 0.0, 1.7172380400973213E9, 0.0, 2024-06-01 03:34:00.097
106.0, 187500.0, -31364.83953772063, 187500.0, 187500.0, 187500.0, 187500.0, 187500.0, -91279.40580599378, 0.012, -0.022, 0.984, 192.0, 0.0, 0.0, 0.0, 0.0, 0.0, 0.0, 0.0, 0.0, 0.0, 1.717238040097333E9, 0.0, 2024-06-01 03:34:00.097
107.0, 187500.0, -31364.21368887588, 187500.0, 187500.0, 187500.0, 187500.0, 187500.0, -91278.71290191567, 0.012, -0.022, 0.984, 192.0, 0.0, 0.0, 0.0, 0.0, 0.0, 0.0, 0.0, 0.0, 0.0, 1.7172380405756223E9, 0.0, 2024-06-01 03:34:00.575
108.0, 187500.0, -31379.278764638755, 187500.0, 187500.0, 187500.0, 187500.0, 187500.0, -91284.88198338533, 0.012, -0.022, 0.984, 192.0, 0.0, 0.0, 0.0, 0.0, 0.0, 0.0, 0.0, 0.0, 0.0, 1.7172380405757017E9, 0.0, 2024-06-01 03:34:00.575
109.0, 187500.0, -31398.434209636955, 187500.0, 187500.0, 187500.0, 187500.0, 187500.0, -91301.53403300453, 0.018000000000000002, -0.02, 0.986, 192.0, 0.0, 144.0, 255.0, 96.0, 30.0, 208.0, 0.0, 0.0, 0.0, 1.7172380405757306E9, 0.0, 2024-06-01 03:34:00.575
110.0, 187500.0, -31412.336994688154, 187500.0, 187500.0, 187500.0, 187500.0, 187500.0, -91322.99170768163, 0.018000000000000002, -0.02, 0.986, 192.0, 0.0, 0.0, 0.0, 0.0, 0.0, 0.0, 0.0, 0.0, 0.0, 1.71723804057576E9, 0.0, 2024-06-01 03:34:00.575
111.0, 187500.0, -31411.666442354497, 187500.0, 187500.0, 187500.0, 187500.0, 187500.0, -91327.39500133932, 0.018000000000000002, -0.02, 0.986, 192.0, 0.0, 0.0, 0.0, 0.0, 0.0, 0.0, 0.0, 0.0, 0.0, 1.7172380405757852E9, 0.0, 2024-06-01 03:34:00.575
112.0, 187500.0, -31414.035727266757, 187500.0, 187500.0, 187500.0, 187500.0, 187500.0, -91322.38821058134, 0.018000000000000002, -0.02, 0.986, 192.0, 0.0, 0.0, 0.0, 0.0, 0.0, 0.0, 0.0, 0.0, 0.0, 1.717238040575811E9, 0.0, 2024-06-01 03:34:00.575
113.0, 187500.0, -31432.565323420207, 187500.0, 187500.0, 187500.0, 187500.0, 187500.0, -91332.71471651968, 0.018000000000000002, -0.02, 0.986, 192.0, 0.0, 0.0, 0.0, 0.0, 0.0, 0.0, 0.0, 0.0, 0.0, 1.7172380405758364E9, 0.0, 2024-06-01 03:34:00.575
114.0, 187500.0, -31458.51569873282, 187500.0, 187500.0, 187500.0, 187500.0, 187500.0, -91366.30938843601, 0.018000000000000002, -0.02, 0.986, 192.0, 0.0, 0.0, 0.0, 0.0, 0.0, 0.0, 0.0, 0.0, 0.0, 1.7172380405758617E9, 0.0, 2024-06-01 03:34:00.575
115.0, 187500.0, -31461.734349934384, 187500.0, 187500.0, 187500.0, 187500.0, 187500.0, -91380.90507756533, 0.018000000000000002, -0.02, 0.986, 192.0, 0.0, 0.0, 0.0, 0.0, 0.0, 0.0, 0.0, 0.0, 0.0, 1.717238040575874E9, 0.0, 2024-06-01 03:34:00.575
116.0, 187500.0, -31464.640076713575, 187500.0, 187500.0, 187500.0, 187500.0, 187500.0, -91376.50178390763, 0.018000000000000002, -0.02, 0.986, 192.0, 0.0, 0.0, 0.0, 0.0, 0.0, 0.0, 0.0, 0.0, 0.0, 1.7172380405758862E9, 0.0, 2024-06-01 03:34:00.575
117.0, 187500.0, -31490.121065392625, 187500.0, 187500.0, 187500.0, 187500.0, 187500.0, -91384.12372876689, 0.018000000000000002, -0.02, 0.986, 192.0, 0.0, 0.0, 0.0, 0.0, 0.0, 0.0, 0.0, 0.0, 0.0, 1.7172380405758982E9, 0.0, 2024-06-01 03:34:00.575
118.0, 187500.0, -31507.175446412024, 187500.0, 187500.0, 187500.0, 187500.0, 187500.0, -91399.45702546323, 0.018000000000000002, -0.02, 0.986, 192.0, 0.0, 0.0, 0.0, 0.0, 0.0, 0.0, 0.0, 0.0, 0.0, 1.71723804057591E9, 0.0, 2024-06-01 03:34:00.575
119.0, 187500.0, -31506.99663245638, 187500.0, 187500.0, 187500.0, 187500.0, 187500.0, -91416.80197916055, 0.024, -0.018000000000000002, 0.986, 192.0, 0.0, 192.0, 255.0, 112.0, 30.0, 208.0, 0.0, 0.0, 0.0, 1.7172380405759225E9, 0.0, 2024-06-01 03:34:00.575
120.0, 187500.0, -31507.71188827895, 187500.0, 187500.0, 187500.0, 187500.0, 187500.0, -91418.97009837271, 0.024, -0.018000000000000002, 0.986, 192.0, 0.0, 0.0, 0.0, 0.0, 0.0, 0.0, 0.0, 0.0, 0.0, 1.717238040575935E9, 0.0, 2024-06-01 03:34:00.575
121.0, 187500.0, -31519.848885518182, 187500.0, 187500.0, 187500.0, 187500.0, 187500.0, -91415.08089483749, 0.024, -0.018000000000000002, 0.986, 192.0, 0.0, 0.0, 0.0, 0.0, 0.0, 0.0, 0.0, 0.0, 0.0, 1.7172380405759468E9, 0.0, 2024-06-01 03:34:00.575
122.0, 187500.0, -31523.33575765321, 187500.0, 187500.0, 187500.0, 187500.0, 187500.0, -91422.4793222522, 0.024, -0.018000000000000002, 0.986, 192.0, 0.0, 0.0, 0.0, 0.0, 0.0, 0.0, 0.0, 0.0, 0.0, 1.7172380405759587E9, 0.0, 2024-06-01 03:34:00.575
123.0, 187500.0, -31512.070478447735, 187500.0, 187500.0, 187500.0, 187500.0, 187500.0, -91418.74658092816, 0.024, -0.018000000000000002, 0.986, 192.0, 0.0, 0.0, 0.0, 0.0, 0.0, 0.0, 0.0, 0.0, 0.0, 1.717238040575982E9, 0.0, 2024-06-01 03:34:00.575
124.0, 187500.0, -31505.499065577875, 187500.0, 187500.0, 187500.0, 187500.0, 187500.0, -91414.43269424829, 0.024, -0.018000000000000002, 0.986, 192.0, 0.0, 0.0, 0.0, 0.0, 0.0, 0.0, 0.0, 0.0, 0.0, 1.717238040575994E9, 0.0, 2024-06-01 03:34:00.575
125.0, 187500.0, -31515.579702327217, 187500.0, 187500.0, 187500.0, 187500.0, 187500.0, -91412.73396166968, 0.024, -0.018000000000000002, 0.986, 192.0, 0.0, 0.0, 0.0, 0.0, 0.0, 0.0, 0.0, 0.0, 0.0, 1.717238040576006E9, 0.0, 2024-06-01 03:34:00.576
126.0, 187500.0, -31513.65745230406, 187500.0, 187500.0, 187500.0, 187500.0, 187500.0, -91403.54739469856, 0.024, -0.018000000000000002, 0.986, 192.0, 0.0, 0.0, 0.0, 0.0, 0.0, 0.0, 0.0, 0.0, 0.0, 1.717238040576018E9, 0.0, 2024-06-01 03:34:00.576
127.0, 187500.0, -31507.354260367665, 187500.0, 187500.0, 187500.0, 187500.0, 187500.0, -91407.77187440061, 0.024, -0.018000000000000002, 0.986, 192.0, 0.0, 0.0, 0.0, 0.0, 0.0, 0.0, 0.0, 0.0, 0.0, 1.7172380405760303E9, 0.0, 2024-06-01 03:34:00.576
128.0, 187500.0, -31498.838245730192, 187500.0, 187500.0, 187500.0, 187500.0, 187500.0, -91405.78256914408, 0.024, -0.018000000000000002, 0.986, 192.0, 0.0, 0.0, 0.0, 0.0, 0.0, 0.0, 0.0, 0.0, 0.0, 1.7172380405760422E9, 0.0, 2024-06-01 03:34:00.576
129.0, 187500.0, -31498.65943177455, 187500.0, 187500.0, 187500.0, 187500.0, 187500.0, -91391.05276954804, 0.022, -0.02, 0.982, 192.0, 0.0, 176.0, 255.0, 96.0, 30.0, 176.0, 0.0, 0.0, 0.0, 1.7172380405760543E9, 0.0, 2024-06-01 03:34:00.576
130.0, 187500.0, -31499.397039341577, 187500.0, 187500.0, 187500.0, 187500.0, 187500.0, -91388.59407765795, 0.022, -0.02, 0.982, 192.0, 0.0, 0.0, 0.0, 0.0, 0.0, 0.0, 0.0, 0.0, 0.0, 1.717238040576067E9, 0.0, 2024-06-01 03:34:00.576
131.0, 187500.0, -31482.74498972237, 187500.0, 187500.0, 187500.0, 187500.0, 187500.0, -91391.85743234844, 0.022, -0.02, 0.982, 192.0, 0.0, 0.0, 0.0, 0.0, 0.0, 0.0, 0.0, 0.0, 0.0, 1.7172380405760791E9, 0.0, 2024-06-01 03:34:00.576
132.0, 187500.0, -31469.937440149482, 187500.0, 187500.0, 187500.0, 187500.0, 187500.0, -91383.85550783343, 0.022, -0.02, 0.982, 192.0, 0.0, 0.0, 0.0, 0.0, 0.0, 0.0, 0.0, 0.0, 0.0, 1.717238040576091E9, 0.0, 2024-06-01 03:34:00.576
133.0, 187500.0, -31473.31255356223, 187500.0, 187500.0, 187500.0, 187500.0, 187500.0, -91380.25687697613, 0.022, -0.02, 0.982, 192.0, 0.0, 0.0, 0.0, 0.0, 0.0, 0.0, 0.0, 0.0, 0.0, 1.7172380405761027E9, 0.0, 2024-06-01 03:34:00.576
134.0, 187500.0, -31469.624515727108, 187500.0, 187500.0, 187500.0, 187500.0, 187500.0, -91371.80791757202, 0.022, -0.02, 0.982, 192.0, 0.0, 0.0, 0.0, 0.0, 0.0, 0.0, 0.0, 0.0, 0.0, 1.717238040576115E9, 0.0, 2024-06-01 03:34:00.576
135.0, 187500.0, -31453.397149252552, 187500.0, 187500.0, 187500.0, 187500.0, 187500.0, -91367.53873438106, 0.022, -0.02, 0.982, 192.0, 0.0, 0.0, 0.0, 0.0, 0.0, 0.0, 0.0, 0.0, 0.0, 1.7172380405761268E9, 0.0, 2024-06-01 03:34:00.576
136.0, 187500.0, -31440.991931079858, 187500.0, 187500.0, 187500.0, 187500.0, 187500.0, -91366.08587099146, 0.022, -0.02, 0.982, 192.0, 0.0, 0.0, 0.0, 0.0, 0.0, 0.0, 0.0, 0.0, 0.0, 1.7172380405761385E9, 0.0, 2024-06-01 03:34:00.576
137.0, 187500.0, -31440.723710146394, 187500.0, 187500.0, 187500.0, 187500.0, 187500.0, -91359.89443777734, 0.022, -0.02, 0.982, 192.0, 0.0, 0.0, 0.0, 0.0, 0.0, 0.0, 0.0, 0.0, 0.0, 1.7172380405761504E9, 0.0, 2024-06-01 03:34:00.576
138.0, 187500.0, -31447.384529994077, 187500.0, 187500.0, 187500.0, 187500.0, 187500.0, -91352.1607341958, 0.022, -0.02, 0.982, 192.0, 0.0, 0.0, 0.0, 0.0, 0.0, 0.0, 0.0, 0.0, 0.0, 1.7172380405761623E9, 0.0, 2024-06-01 03:34:00.576
139.0, 187500.0, -31444.344692748153, 187500.0, 187500.0, 187500.0, 187500.0, 187500.0, -91346.41633587079, 0.02, -0.018000000000000002, 0.988, 192.0, 0.0, 160.0, 255.0, 112.0, 30.0, 224.0, 0.0, 0.0, 0.0, 1.717238040576183E9, 0.0, 2024-06-01 03:34:00.576
140.0, 187500.0, -31426.26213148381, 187500.0, 187500.0, 187500.0, 187500.0, 187500.0, -91343.01887071358, 0.02, -0.018000000000000002, 0.988, 192.0, 0.0, 0.0, 0.0, 0.0, 0.0, 0.0, 0.0, 0.0, 0.0, 1.7172380405761957E9, 0.0, 2024-06-01 03:34:00.576
141.0, 187500.0, -31418.997814535836, 187500.0, 187500.0, 187500.0, 187500.0, 187500.0, -91338.30265263352, 0.02, -0.018000000000000002, 0.988, 192.0, 0.0, 0.0, 0.0, 0.0, 0.0, 0.0, 0.0, 0.0, 0.0, 1.7172380405762076E9, 0.0, 2024-06-01 03:34:00.576
142.0, 187500.0, -31428.251436740335, 187500.0, 187500.0, 187500.0, 187500.0, 187500.0, -91331.08303917445, 0.02, -0.018000000000000002, 0.988, 192.0, 0.0, 0.0, 0.0, 0.0, 0.0, 0.0, 0.0, 0.0, 0.0, 1.7172380405762196E9, 0.0, 2024-06-01 03:34:00.576
143.0, 187500.0, -31421.12123025909, 187500.0, 187500.0, 187500.0, 187500.0, 187500.0, -91316.64381225633, 0.02, -0.018000000000000002, 0.988, 192.0, 0.0, 0.0, 0.0, 0.0, 0.0, 0.0, 0.0, 0.0, 0.0, 1.7172380405762317E9, 0.0, 2024-06-01 03:34:00.576
144.0, 187500.0, -31415.063907511703, 187500.0, 187500.0, 187500.0, 187500.0, 187500.0, -91328.69140251772, 0.02, -0.018000000000000002, 0.988, 192.0, 0.0, 0.0, 0.0, 0.0, 0.0, 0.0, 0.0, 0.0, 0.0, 1.7172380405762436E9, 0.0, 2024-06-01 03:34:00.576
145.0, 187500.0, -31409.54302663124, 187500.0, 187500.0, 187500.0, 187500.0, 187500.0, -91331.97710895266, 0.02, -0.018000000000000002, 0.988, 192.0, 0.0, 0.0, 0.0, 0.0, 0.0, 0.0, 0.0, 0.0, 0.0, 1.7172380405762553E9, 0.0, 2024-06-01 03:34:00.576
146.0, 187500.0, -31413.991023777846, 187500.0, 187500.0, 187500.0, 187500.0, 187500.0, -91323.4610943152, 0.02, -0.018000000000000002, 0.988, 192.0, 0.0, 0.0, 0.0, 0.0, 0.0, 0.0, 0.0, 0.0, 0.0, 1.7172380405762672E9, 0.0, 2024-06-01 03:34:00.576
147.0, 187500.0, -31416.673233112484, 187500.0, 187500.0, 187500.0, 187500.0, 187500.0, -91320.08598090244, 0.02, -0.018000000000000002, 0.988, 192.0, 0.0, 0.0, 0.0, 0.0, 0.0, 0.0, 0.0, 0.0, 0.0, 1.717238040576279E9, 0.0, 2024-06-01 03:34:00.576
