%OpenBCI Raw EXG Data
%Number of channels = 8
%Sample Rate = 250 Hz
%Board = OpenBCI_GUI$BoardCytonSerial
Sample Index, EXG Channel 0, EXG Channel 1, EXG Channel 2, EXG Channel 3, EXG Channel 4, EXG Channel 5, EXG Channel 6, EXG Channel 7, Accel Channel 0, Accel Channel 1, Accel Channel 2, Other, Other, Other, Other, Other, Other, Other, Analog Channel 0, Analog Channel 1, Analog Channel 2, Timestamp, Other, Timestamp (Formatted)
18.0, 187500.0, -39416.25081494461, 187500.0, 187500.0, 187500.0, 187500.0, 187500.0, -88477.79345247668, 0.0, 0.0, 0.0, 192.0, 0.0, 0.0, 0.0, 0.0, 0.0, 0.0, 0.0, 0.0, 0.0, 1.7172379444598517E9, 0.0, 2024-06-01 03:32:24.459
19.0, 187500.0, -39475.12530983988, 187500.0, 187500.0, 187500.0, 187500.0, 187500.0, -88548.11204053307, 0.0, 0.0, 0.0, 192.0, 0.0, 0.0, 0.0, 0.0, 0.0, 0.0, 0.0, 0.0, 0.0, 1.7172379444598792E9, 0.0, 2024-06-01 03:32:24.459
20.0, 187500.0, -39558.1843922358, 187500.0, 187500.0, 187500.0, 187500.0, 187500.0, -88594.02252364428, 0.0, 0.0, 0.0, 192.0, 0.0, 0.0, 0.0, 0.0, 0.0, 0.0, 0.0, 0.0, 0.0, 1.717237944459895E9, 0.0, 2024-06-01 03:32:24.459
21.0, 187500.0, -39509.30112711205, 187500.0, 187500.0, 187500.0, 187500.0, 187500.0, -88520.93231927542, 0.018000000000000002, -0.004, 0.984, 192.0, 0.0, 144.0, 255.0, 224.0, 30.0, 192.0, 0.0, 0.0, 0.0, 1.7172379444599094E9, 0.0, 2024-06-01 03:32:24.459
22.0, 187500.0, -39416.004945755594, 187500.0, 187500.0, 187500.0, 187500.0, 187500.0, -88442.4776962373, 0.018000000000000002, -0.004, 0.984, 192.0, 0.0, 0.0, 0.0, 0.0, 0.0, 0.0, 0.0, 0.0, 0.0, 1.7172379444599252E9, 0.0, 2024-06-01 03:32:24.459
23.0, 187500.0, -39454.13702179635, 187500.0, 187500.0, 187500.0, 187500.0, 187500.0, -88533.33753744813, 0.018000000000000002, -0.004, 0.984, 192.0, 0.0, 0.0, 0.0, 0.0, 0.0, 0.0, 0.0, 0.0, 0.0, 1.7172379444599648E9, 0.0, 2024-06-01 03:32:24.459
24.0, 187500.0, -39545.80152580757, 187500.0, 187500.0, 187500.0, 187500.0, 187500.0, -88622.54334956926, 0.018000000000000002, -0.004, 0.984, 192.0, 0.0, 0.0, 0.0, 0.0, 0.0, 0.0, 0.0, 0.0, 0.0, 1.717237944459979E9, 0.0, 2024-06-01 03:32:24.459
25.0, 187500.0, -39509.25642362314, 187500.0, 187500.0, 187500.0, 187500.0, 187500.0, -88555.89044760352, 0.018000000000000002, -0.004, 0.984, 192.0, 0.0, 0.0, 0.0, 0.0, 0.0, 0.0, 0.0, 0.0, 0.0, 1.7172379444599931E9, 0.0, 2024-06-01 03:32:24.459
26.0, 187500.0, -39412.47337013166, 187500.0, 187500.0, 187500.0, 187500.0, 187500.0, -88460.94023715738, 0.018000000000000002, -0.004, 0.984, 192.0, 0.0, 0.0, 0.0, 0.0, 0.0, 0.0, 0.0, 0.0, 0.0, 1.7172379444600072E9, 0.0, 2024-06-01 03:32:24.460
27.0, 187500.0, -39436.68030937676, 187500.0, 187500.0, 187500.0, 187500.0, 187500.0, -88519.12182797454, 0.018000000000000002, -0.004, 0.984, 192.0, 0.0, 0.0, 0.0, 0.0, 0.0, 0.0, 0.0, 0.0, 0.0, 1.7172379444600213E9, 0.0, 2024-06-01 03:32:24.460
28.0, 187500.0, -39528.233054665696, 187500.0, 187500.0, 187500.0, 187500.0, 187500.0, -88626.09727693764, 0.018000000000000002, -0.004, 0.984, 192.0, 0.0, 0.0, 0.0, 0.0, 0.0, 0.0, 0.0, 0.0, 0.0, 1.7172379444600348E9, 0.0, 2024-06-01 03:32:24.460
29.0, 187500.0, -39527.24957790966, 187500.0, 187500.0, 187500.0, 187500.0, 187500.0, -88573.92830537895, 0.018000000000000002, -0.004, 0.984, 192.0, 0.0, 0.0, 0.0, 0.0, 0.0, 0.0, 0.0, 0.0, 0.0, 1.7172379444600496E9, 0.0, 2024-06-01 03:32:24.460
30.0, 187500.0, -39430.53357965155, 187500.0, 187500.0, 187500.0, 187500.0, 187500.0, -88451.26193180823, 0.016, -0.002, 0.984, 192.0, 0.0, 128.0, 255.0, 240.0, 30.0, 192.0, 0.0, 0.0, 0.0, 1.7172379444600635E9, 0.0, 2024-06-01 03:32:24.460
31.0, 187500.0, -39426.018527271575, 187500.0, 187500.0, 187500.0, 187500.0, 187500.0, -88485.0354176802, 0.016, -0.002, 0.984, 192.0, 0.0, 0.0, 0.0, 0.0, 0.0, 0.0, 0.0, 0.0, 0.0, 1.717237944460078E9, 0.0, 2024-06-01 03:32:24.460
32.0, 187500.0, -39512.74329575817, 187500.0, 187500.0, 187500.0, 187500.0, 187500.0, -88595.58714575614, 0.016, -0.002, 0.984, 192.0, 0.0, 0.0, 0.0, 0.0, 0.0, 0.0, 0.0, 0.0, 0.0, 1.7172379444600918E9, 0.0, 2024-06-01 03:32:24.460
33.0, 187500.0, -39534.46919136873, 187500.0, 187500.0, 187500.0, 187500.0, 187500.0, -88589.41806428648, 0.016, -0.002, 0.984, 192.0, 0.0, 0.0, 0.0, 0.0, 0.0, 0.0, 0.0, 0.0, 0.0, 1.7172379444601057E9, 0.0, 2024-06-01 03:32:24.460
34.0, 187500.0, -39435.316852964985, 187500.0, 187500.0, 187500.0, 187500.0, 187500.0, -88483.82842347962, 0.016, -0.002, 0.984, 192.0, 0.0, 0.0, 0.0, 0.0, 0.0, 0.0, 0.0, 0.0, 0.0, 1.7172379444601192E9, 0.0, 2024-06-01 03:32:24.460
35.0, 187500.0, -39402.21391942667, 187500.0, 187500.0, 187500.0, 187500.0, 187500.0, -88504.45908361186, 0.016, -0.002, 0.984, 192.0, 0.0, 0.0, 0.0, 0.0, 0.0, 0.0, 0.0, 0.0, 0.0, 1.7172379444601328E9, 0.0, 2024-06-01 03:32:24.460
36.0, 187500.0, -39480.04269362005, 187500.0, 187500.0, 187500.0, 187500.0, 187500.0, -88600.2586603473, 0.016, -0.002, 0.984, 192.0, 0.0, 0.0, 0.0, 0.0, 0.0, 0.0, 0.0, 0.0, 0.0, 1.7172379444601467E9, 0.0, 2024-06-01 03:32:24.460
37.0, 187500.0, -39523.114505185426, 187500.0, 187500.0, 187500.0, 187500.0, 187500.0, -88606.24892786134, 0.016, -0.002, 0.984, 192.0, 0.0, 0.0, 0.0, 0.0, 0.0, 0.0, 0.0, 0.0, 0.0, 1.7172379444601603E9, 0.0, 2024-06-01 03:32:24.460
38.0, 187500.0, -39448.303216493514, 187500.0, 187500.0, 187500.0, 187500.0, 187500.0, -88495.16075791845, 0.016, -0.002, 0.984, 192.0, 0.0, 0.0, 0.0, 0.0, 0.0, 0.0, 0.0, 0.0, 0.0, 1.7172379444601865E9, 0.0, 2024-06-01 03:32:24.460
39.0, 187500.0, -39391.86506174387, 187500.0, 187500.0, 187500.0, 187500.0, 187500.0, -88465.76821395973, 0.016, -0.002, 0.984, 192.0, 0.0, 0.0, 0.0, 0.0, 0.0, 0.0, 0.0, 0.0, 0.0, 1.7172379444602003E9, 0.0, 2024-06-01 03:32:24.460
40.0, 187500.0, -39459.68025442127, 187500.0, 187500.0, 187500.0, 187500.0, 187500.0, -88562.61832268458, 0.018000000000000002, -0.002, 0.984, 192.0, 0.0, 144.0, 255.0, 240.0, 30.0, 192.0, 0.0, 0.0, 0.0, 1.7172379444602172E9, 0.0, 2024-06-01 03:32:24.460
41.0, 187500.0, -39518.93472897229, 187500.0, 187500.0, 187500.0, 187500.0, 187500.0, -88602.33737258165, 0.018000000000000002, -0.002, 0.984, 192.0, 0.0, 0.0, 0.0, 0.0, 0.0, 0.0, 0.0, 0.0, 0.0, 1.7172379444602315E9, 0.0, 2024-06-01 03:32:24.460
42.0, 187500.0, -39476.13113834037, 187500.0, 187500.0, 187500.0, 187500.0, 187500.0, -88522.31812743166, 0.018000000000000002, -0.002, 0.984, 192.0, 0.0, 0.0, 0.0, 0.0, 0.0, 0.0, 0.0, 0.0, 0.0, 1.7172379444602456E9, 0.0, 2024-06-01 03:32:24.460
43.0, 187500.0, -39390.07692218744, 187500.0, 187500.0, 187500.0, 187500.0, 187500.0, -88485.41539733594, 0.018000000000000002, -0.002, 0.984, 192.0, 0.0, 0.0, 0.0, 0.0, 0.0, 0.0, 0.0, 0.0, 0.0, 1.7172379444602592E9, 0.0, 2024-06-01 03:32:24.460
44.0, 187500.0, -39433.75223085311, 187500.0, 187500.0, 187500.0, 187500.0, 187500.0, -88569.61441869909, 0.018000000000000002, -0.002, 0.984, 192.0, 0.0, 0.0, 0.0, 0.0, 0.0, 0.0, 0.0, 0.0, 0.0, 1.7172379444602728E9, 0.0, 2024-06-01 03:32:24.460
45.0, 187500.0, -39517.526569071604, 187500.0, 187500.0, 187500.0, 187500.0, 187500.0, -88627.43838160497, 0.018000000000000002, -0.002, 0.984, 192.0, 0.0, 0.0, 0.0, 0.0, 0.0, 0.0, 0.0, 0.0, 0.0, 1.7172379444602864E9, 0.0, 2024-06-01 03:32:24.460
46.0, 187500.0, -39484.91537391131, 187500.0, 187500.0, 187500.0, 187500.0, 187500.0, -88529.4483339129, 0.018000000000000002, -0.002, 0.984, 192.0, 0.0, 0.0, 0.0, 0.0, 0.0, 0.0, 0.0, 0.0, 0.0, 1.7172379444603E9, 0.0, 2024-06-01 03:32:24.460
47.0, 187500.0, -39380.443320327206, 187500.0, 187500.0, 187500.0, 187500.0, 187500.0, -88464.53886801469, 0.018000000000000002, -0.002, 0.984, 192.0, 0.0, 0.0, 0.0, 0.0, 0.0, 0.0, 0.0, 0.0, 0.0, 1.7172379444603136E9, 0.0, 2024-06-01 03:32:24.460
48.0, 187500.0, -39417.01077425609, 187500.0, 187500.0, 187500.0, 187500.0, 187500.0, -88541.92060731896, 0.018000000000000002, -0.002, 0.984, 192.0, 0.0, 0.0, 0.0, 0.0, 0.0, 0.0, 0.0, 0.0, 0.0, 1.7172379444603271E9, 0.0, 2024-06-01 03:32:24.460
49.0, 187500.0, -39512.005688191144, 187500.0, 187500.0, 187500.0, 187500.0, 187500.0, -88607.70179125092, 0.018000000000000002, -0.002, 0.984, 192.0, 0.0, 0.0, 0.0, 0.0, 0.0, 0.0, 0.0, 0.0, 0.0, 1.7172379444603407E9, 0.0, 2024-06-01 03:32:24.460
50.0, 187500.0, -39495.1748246163, 187500.0, 187500.0, 187500.0, 187500.0, 187500.0, -88567.75922390929, 0.022, -0.004, 0.982, 192.0, 0.0, 176.0, 255.0, 224.0, 30.0, 176.0, 0.0, 0.0, 0.0, 1.7172379444603543E9, 0.0, 2024-06-01 03:32:24.460
51.0, 187500.0, -39400.22461417015, 187500.0, 187500.0, 187500.0, 187500.0, 187500.0, -88495.29486838519, 0.022, -0.004, 0.982, 192.0, 0.0, 0.0, 0.0, 0.0, 0.0, 0.0, 0.0, 0.0, 0.0, 1.7172379444603686E9, 0.0, 2024-06-01 03:32:24.460
52.0, 187500.0, -39415.71437307768, 187500.0, 187500.0, 187500.0, 187500.0, 187500.0, -88534.05279327069, 0.022, -0.004, 0.982, 192.0, 0.0, 0.0, 0.0, 0.0, 0.0, 0.0, 0.0, 0.0, 0.0, 1.717237944460382E9, 0.0, 2024-06-01 03:32:24.460
53.0, 187500.0, -39505.97071718821, 187500.0, 187500.0, 187500.0, 187500.0, 187500.0, -88610.27224186329, 0.022, -0.004, 0.982, 192.0, 0.0, 0.0, 0.0, 0.0, 0.0, 0.0, 0.0, 0.0, 0.0, 1.717237944460405E9, 0.0, 2024-06-01 03:32:24.460
54.0, 187500.0, -39505.45662706574, 187500.0, 187500.0, 187500.0, 187500.0, 187500.0, -88593.57548875517, 0.022, -0.004, 0.982, 192.0, 0.0, 0.0, 0.0, 0.0, 0.0, 0.0, 0.0, 0.0, 0.0, 1.7172379444604187E9, 0.0, 2024-06-01 03:32:24.460
55.0, 187500.0, -39408.69592531871, 187500.0, 187500.0, 187500.0, 187500.0, 187500.0, -88497.46298759735, 0.022, -0.004, 0.982, 192.0, 0.0, 0.0, 0.0, 0.0, 0.0, 0.0, 0.0, 0.0, 0.0, 1.7172379444604323E9, 0.0, 2024-06-01 03:32:24.460
56.0, 187500.0, -39393.65320130029, 187500.0, 187500.0, 187500.0, 187500.0, 187500.0, -88518.89831052998, 0.022, -0.004, 0.982, 192.0, 0.0, 0.0, 0.0, 0.0, 0.0, 0.0, 0.0, 0.0, 0.0, 1.7172379444604461E9, 0.0, 2024-06-01 03:32:24.460
57.0, 187500.0, -39483.820138433, 187500.0, 187500.0, 187500.0, 187500.0, 187500.0, -88616.03899193276, 0.022, -0.004, 0.982, 192.0, 0.0, 0.0, 0.0, 0.0, 0.0, 0.0, 0.0, 0.0, 0.0, 1.7172379444604597E9, 0.0, 2024-06-01 03:32:24.460
58.0, 187500.0, -39516.92307197131, 187500.0, 187500.0, 187500.0, 187500.0, 187500.0, -88625.58318681517, 0.022, -0.004, 0.982, 192.0, 0.0, 0.0, 0.0, 0.0, 0.0, 0.0, 0.0, 0.0, 0.0, 1.7172379444604733E9, 0.0, 2024-06-01 03:32:24.460
59.0, 187500.0, -39421.3023091915, 187500.0, 187500.0, 187500.0, 187500.0, 187500.0, -88522.45223789838, 0.022, -0.004, 0.982, 192.0, 0.0, 0.0, 0.0, 0.0, 0.0, 0.0, 0.0, 0.0, 0.0, 1.717237944460487E9, 0.0, 2024-06-01 03:32:24.460
60.0, 187500.0, -39367.68047424322, 187500.0, 187500.0, 187500.0, 187500.0, 187500.0, -88483.82842347962, 0.016, -0.002, 0.984, 192.0, 0.0, 128.0, 255.0, 240.0, 30.0, 192.0, 0.0, 0.0, 0.0, 1.7172379444605005E9, 0.0, 2024-06-01 03:32:24.460
61.0, 187500.0, -39459.367329998895, 187500.0, 187500.0, 187500.0, 187500.0, 187500.0, -88587.42875902996, 0.016, -0.002, 0.984, 192.0, 0.0, 0.0, 0.0, 0.0, 0.0, 0.0, 0.0, 0.0, 0.0, 1.7172379444605165E9, 0.0, 2024-06-01 03:32:24.460
62.0, 187500.0, -39524.165037174826, 187500.0, 187500.0, 187500.0, 187500.0, 187500.0, -88614.69788726544, 0.016, -0.002, 0.984, 192.0, 0.0, 0.0, 0.0, 0.0, 0.0, 0.0, 0.0, 0.0, 0.0, 1.71723794446053E9, 0.0, 2024-06-01 03:32:24.460
63.0, 187500.0, -39438.42374544427, 187500.0, 187500.0, 187500.0, 187500.0, 187500.0, -88528.68837460142, 0.016, -0.002, 0.984, 192.0, 0.0, 0.0, 0.0, 0.0, 0.0, 0.0, 0.0, 0.0, 0.0, 1.7172379444605436E9, 0.0, 2024-06-01 03:32:24.460
64.0, 187500.0, -39383.7960819955, 187500.0, 187500.0, 187500.0, 187500.0, 187500.0, -88504.6378975675, 0.016, -0.002, 0.984, 192.0, 0.0, 0.0, 0.0, 0.0, 0.0, 0.0, 0.0, 0.0, 0.0, 1.7172379444605572E9, 0.0, 2024-06-01 03:32:24.460
65.0, 187500.0, -39459.367329998895, 187500.0, 187500.0, 187500.0, 187500.0, 187500.0, -88599.409294058, 0.016, -0.002, 0.984, 192.0, 0.0, 0.0, 0.0, 0.0, 0.0, 0.0, 0.0, 0.0, 0.0, 1.7172379444605708E9, 0.0, 2024-06-01 03:32:24.460
66.0, 187500.0, -39527.316633143026, 187500.0, 187500.0, 187500.0, 187500.0, 187500.0, -88647.174971959, 0.016, -0.002, 0.984, 192.0, 0.0, 0.0, 0.0, 0.0, 0.0, 0.0, 0.0, 0.0, 0.0, 1.7172379444605844E9, 0.0, 2024-06-01 03:32:24.460
67.0, 187500.0, -39451.76773688409, 187500.0, 187500.0, 187500.0, 187500.0, 187500.0, -88548.04498529971, 0.016, -0.002, 0.984, 192.0, 0.0, 0.0, 0.0, 0.0, 0.0, 0.0, 0.0, 0.0, 0.0, 1.717237944460598E9, 0.0, 2024-06-01 03:32:24.460
68.0, 187500.0, -39373.93896269071, 187500.0, 187500.0, 187500.0, 187500.0, 187500.0, -88491.07038868313, 0.016, -0.002, 0.984, 192.0, 0.0, 0.0, 0.0, 0.0, 0.0, 0.0, 0.0, 0.0, 0.0, 1.7172379444606197E9, 0.0, 2024-06-01 03:32:24.460
69.0, 187500.0, -39422.53165513655, 187500.0, 187500.0, 187500.0, 187500.0, 187500.0, -88581.77376768277, 0.016, -0.002, 0.984, 192.0, 0.0, 0.0, 0.0, 0.0, 0.0, 0.0, 0.0, 0.0, 0.0, 1.7172379444606335E9, 0.0, 2024-06-01 03:32:24.460
70.0, 187500.0, -39511.04456317957, 187500.0, 187500.0, 187500.0, 187500.0, 187500.0, -88632.10989619613, 0.02, -0.004, 0.978, 192.0, 0.0, 160.0, 255.0, 224.0, 30.0, 144.0, 0.0, 0.0, 0.0, 1.717237944460647E9, 0.0, 2024-06-01 03:32:24.460
71.0, 187500.0, -39466.29637078004, 187500.0, 187500.0, 187500.0, 187500.0, 187500.0, -88546.81563935467, 0.02, -0.004, 0.978, 192.0, 0.0, 0.0, 0.0, 0.0, 0.0, 0.0, 0.0, 0.0, 0.0, 1.7172379444606612E9, 0.0, 2024-06-01 03:32:24.460
72.0, 187500.0, -39366.49583178709, 187500.0, 187500.0, 187500.0, 187500.0, 187500.0, -88470.5291355287, 0.02, -0.004, 0.978, 192.0, 0.0, 0.0, 0.0, 0.0, 0.0, 0.0, 0.0, 0.0, 0.0, 1.7172379444606745E9, 0.0, 2024-06-01 03:32:24.460
73.0, 187500.0, -39386.7465122636, 187500.0, 187500.0, 187500.0, 187500.0, 187500.0, -88529.2471682128, 0.02, -0.004, 0.978, 192.0, 0.0, 0.0, 0.0, 0.0, 0.0, 0.0, 0.0, 0.0, 0.0, 1.717237944460688E9, 0.0, 2024-06-01 03:32:24.460
74.0, 187500.0, -39489.9221646693, 187500.0, 187500.0, 187500.0, 187500.0, 187500.0, -88633.7639252858, 0.02, -0.004, 0.978, 192.0, 0.0, 0.0, 0.0, 0.0, 0.0, 0.0, 0.0, 0.0, 0.0, 1.7172379444607017E9, 0.0, 2024-06-01 03:32:24.460
75.0, 187500.0, -39477.896926152345, 187500.0, 187500.0, 187500.0, 187500.0, 187500.0, -88604.34902958263, 0.02, -0.004, 0.978, 192.0, 0.0, 0.0, 0.0, 0.0, 0.0, 0.0, 0.0, 0.0, 0.0, 1.7172379444607153E9, 0.0, 2024-06-01 03:32:24.460
76.0, 187500.0, -39386.88062273033, 187500.0, 187500.0, 187500.0, 187500.0, 187500.0, -88494.7360747738, 0.02, -0.004, 0.978, 192.0, 0.0, 0.0, 0.0, 0.0, 0.0, 0.0, 0.0, 0.0, 0.0, 1.717237944460729E9, 0.0, 2024-06-01 03:32:24.460
77.0, 187500.0, -39385.51716631856, 187500.0, 187500.0, 187500.0, 187500.0, 187500.0, -88529.15776123498, 0.02, -0.004, 0.978, 192.0, 0.0, 0.0, 0.0, 0.0, 0.0, 0.0, 0.0, 0.0, 0.0, 1.7172379444607425E9, 0.0, 2024-06-01 03:32:24.460
78.0, 187500.0, -39474.49946099514, 187500.0, 187500.0, 187500.0, 187500.0, 187500.0, -88618.43062858947, 0.02, -0.004, 0.978, 192.0, 0.0, 0.0, 0.0, 0.0, 0.0, 0.0, 0.0, 0.0, 0.0, 1.717237944460756E9, 0.0, 2024-06-01 03:32:24.460
79.0, 187500.0, -39479.707417453224, 187500.0, 187500.0, 187500.0, 187500.0, 187500.0, -88592.0108666433, 0.02, -0.004, 0.978, 192.0, 0.0, 0.0, 0.0, 0.0, 0.0, 0.0, 0.0, 0.0, 0.0, 1.7172379444607694E9, 0.0, 2024-06-01 03:32:24.460
80.0, 187500.0, -39389.451073342694, 187500.0, 187500.0, 187500.0, 187500.0, 187500.0, -88489.37165610453, 0.016, -0.002, 0.98, 192.0, 0.0, 128.0, 255.0, 240.0, 30.0, 160.0, 0.0, 0.0, 0.0, 1.7172379444607828E9, 0.0, 2024-06-01 03:32:24.460
81.0, 187500.0, -39379.12456740434, 187500.0, 187500.0, 187500.0, 187500.0, 187500.0, -88524.62035711054, 0.016, -0.002, 0.98, 192.0, 0.0, 0.0, 0.0, 0.0, 0.0, 0.0, 0.0, 0.0, 0.0, 1.7172379444607973E9, 0.0, 2024-06-01 03:32:24.460
82.0, 187500.0, -39458.13798405385, 187500.0, 187500.0, 187500.0, 187500.0, 187500.0, -88623.86210249212, 0.016, -0.002, 0.98, 192.0, 0.0, 0.0, 0.0, 0.0, 0.0, 0.0, 0.0, 0.0, 0.0, 1.7172379444608126E9, 0.0, 2024-06-01 03:32:24.460
83.0, 187500.0, -39486.63645823437, 187500.0, 187500.0, 187500.0, 187500.0, 187500.0, -88612.06038141971, 0.016, -0.002, 0.98, 192.0, 0.0, 0.0, 0.0, 0.0, 0.0, 0.0, 0.0, 0.0, 0.0, 1.7172379444608264E9, 0.0, 2024-06-01 03:32:24.460
84.0, 187500.0, -39396.55892807948, 187500.0, 187500.0, 187500.0, 187500.0, 187500.0, -88492.12092067253, 0.016, -0.002, 0.98, 192.0, 0.0, 0.0, 0.0, 0.0, 0.0, 0.0, 0.0, 0.0, 0.0, 1.7172379444608479E9, 0.0, 2024-06-01 03:32:24.460
85.0, 187500.0, -39358.829183438924, 187500.0, 187500.0, 187500.0, 187500.0, 187500.0, -88492.99263870629, 0.016, -0.002, 0.98, 192.0, 0.0, 0.0, 0.0, 0.0, 0.0, 0.0, 0.0, 0.0, 0.0, 1.7172379444608617E9, 0.0, 2024-06-01 03:32:24.460
86.0, 187500.0, -39433.215788986185, 187500.0, 187500.0, 187500.0, 187500.0, 187500.0, -88601.55506152571, 0.016, -0.002, 0.98, 192.0, 0.0, 0.0, 0.0, 0.0, 0.0, 0.0, 0.0, 0.0, 0.0, 1.717237944460875E9, 0.0, 2024-06-01 03:32:24.460
87.0, 187500.0, -39490.83858619197, 187500.0, 187500.0, 187500.0, 187500.0, 187500.0, -88621.29165187976, 0.016, -0.002, 0.98, 192.0, 0.0, 0.0, 0.0, 0.0, 0.0, 0.0, 0.0, 0.0, 0.0, 1.7172379444608884E9, 0.0, 2024-06-01 03:32:24.460
88.0, 187500.0, -39426.66672786078, 187500.0, 187500.0, 187500.0, 187500.0, 187500.0, -88517.91483377396, 0.016, -0.002, 0.98, 192.0, 0.0, 0.0, 0.0, 0.0, 0.0, 0.0, 0.0, 0.0, 0.0, 1.717237944460902E9, 0.0, 2024-06-01 03:32:24.460
89.0, 187500.0, -39373.246058612596, 187500.0, 187500.0, 187500.0, 187500.0, 187500.0, -88509.82350228114, 0.016, -0.002, 0.98, 192.0, 0.0, 0.0, 0.0, 0.0, 0.0, 0.0, 0.0, 0.0, 0.0, 1.7172379444609156E9, 0.0, 2024-06-01 03:32:24.460
90.0, 187500.0, -39433.12638200836, 187500.0, 187500.0, 187500.0, 187500.0, 187500.0, -88612.88739596456, 0.014, -0.002, 0.978, 192.0, 0.0, 112.0, 255.0, 240.0, 30.0, 144.0, 0.0, 0.0, 0.0, 1.7172379444609308E9, 0.0, 2024-06-01 03:32:24.460
91.0, 187500.0, -39486.74821695664, 187500.0, 187500.0, 187500.0, 187500.0, 187500.0, -88634.65799506403, 0.014, -0.002, 0.978, 192.0, 0.0, 0.0, 0.0, 0.0, 0.0, 0.0, 0.0, 0.0, 0.0, 1.7172379444609456E9, 0.0, 2024-06-01 03:32:24.460
92.0, 187500.0, -39414.41797189927, 187500.0, 187500.0, 187500.0, 187500.0, 187500.0, -88549.00611031128, 0.014, -0.002, 0.978, 192.0, 0.0, 0.0, 0.0, 0.0, 0.0, 0.0, 0.0, 0.0, 0.0, 1.7172379444609597E9, 0.0, 2024-06-01 03:32:24.460
93.0, 187500.0, -39339.941959374184, 187500.0, 187500.0, 187500.0, 187500.0, 187500.0, -88485.10247291357, 0.014, -0.002, 0.978, 192.0, 0.0, 0.0, 0.0, 0.0, 0.0, 0.0, 0.0, 0.0, 0.0, 1.7172379444609735E9, 0.0, 2024-06-01 03:32:24.460
94.0, 187500.0, -39401.99040198212, 187500.0, 187500.0, 187500.0, 187500.0, 187500.0, -88568.31801752068, 0.014, -0.002, 0.978, 192.0, 0.0, 0.0, 0.0, 0.0, 0.0, 0.0, 0.0, 0.0, 0.0, 1.717237944460987E9, 0.0, 2024-06-01 03:32:24.460
95.0, 187500.0, -39487.57523150149, 187500.0, 187500.0, 187500.0, 187500.0, 187500.0, -88640.91648351151, 0.014, -0.002, 0.978, 192.0, 0.0, 0.0, 0.0, 0.0, 0.0, 0.0, 0.0, 0.0, 0.0, 1.7172379444610007E9, 0.0, 2024-06-01 03:32:24.461
96.0, 187500.0, -39444.972806569676, 187500.0, 187500.0, 187500.0, 187500.0, 187500.0, -88586.19941308492, 0.014, -0.002, 0.978, 192.0, 0.0, 0.0, 0.0, 0.0, 0.0, 0.0, 0.0, 0.0, 0.0, 1.7172379444610145E9, 0.0, 2024-06-01 03:32:24.461
97.0, 187500.0, -39354.51529675905, 187500.0, 187500.0, 187500.0, 187500.0, 187500.0, -88501.4415981104, 0.014, -0.002, 0.978, 192.0, 0.0, 0.0, 0.0, 0.0, 0.0, 0.0, 0.0, 0.0, 0.0, 1.7172379444610283E9, 0.0, 2024-06-01 03:32:24.461
98.0, 187500.0, -39383.46080582867, 187500.0, 187500.0, 187500.0, 187500.0, 187500.0, -88545.58629340962, 0.014, -0.002, 0.978, 192.0, 0.0, 0.0, 0.0, 0.0, 0.0, 0.0, 0.0, 0.0, 0.0, 1.717237944461042E9, 0.0, 2024-06-01 03:32:24.461
99.0, 187500.0, -39489.9221646693, 187500.0, 187500.0, 187500.0, 187500.0, 187500.0, -88647.28673068127, 0.014, -0.002, 0.978, 192.0, 0.0, 0.0, 0.0, 0.0, 0.0, 0.0, 0.0, 0.0, 0.0, 1.7172379444610636E9, 0.0, 2024-06-01 03:32:24.461
100.0, 187500.0, -39475.90762089582, 187500.0, 187500.0, 187500.0, 187500.0, 187500.0, -88616.64248903305, 0.014, -0.004, 0.982, 192.0, 0.0, 112.0, 255.0, 224.0, 30.0, 176.0, 0.0, 0.0, 0.0, 1.7172379444610772E9, 0.0, 2024-06-01 03:32:24.461
101.0, 187500.0, -39375.749453991586, 187500.0, 187500.0, 187500.0, 187500.0, 187500.0, -88522.49694138729, 0.014, -0.004, 0.982, 192.0, 0.0, 0.0, 0.0, 0.0, 0.0, 0.0, 0.0, 0.0, 0.0, 1.7172379444610915E9, 0.0, 2024-06-01 03:32:24.461
102.0, 187500.0, -39370.63090451132, 187500.0, 187500.0, 187500.0, 187500.0, 187500.0, -88547.86617134407, 0.014, -0.004, 0.982, 192.0, 0.0, 0.0, 0.0, 0.0, 0.0, 0.0, 0.0, 0.0, 0.0, 1.717237944461105E9, 0.0, 2024-06-01 03:32:24.461
103.0, 187500.0, -39450.694853150235, 187500.0, 187500.0, 187500.0, 187500.0, 187500.0, -88624.66676529251, 0.014, -0.004, 0.982, 192.0, 0.0, 0.0, 0.0, 0.0, 0.0, 0.0, 0.0, 0.0, 0.0, 1.7172379444611192E9, 0.0, 2024-06-01 03:32:24.461
104.0, 187500.0, -39477.33813254096, 187500.0, 187500.0, 187500.0, 187500.0, 187500.0, -88623.77269551429, 0.014, -0.004, 0.982, 192.0, 0.0, 0.0, 0.0, 0.0, 0.0, 0.0, 0.0, 0.0, 0.0, 1.7172379444611347E9, 0.0, 2024-06-01 03:32:24.461
105.0, 187500.0, -39374.40834932427, 187500.0, 187500.0, 187500.0, 187500.0, 187500.0, -88525.96146177787, 0.014, -0.004, 0.982, 192.0, 0.0, 0.0, 0.0, 0.0, 0.0, 0.0, 0.0, 0.0, 0.0, 1.7172379444611485E9, 0.0, 2024-06-01 03:32:24.461
106.0, 187500.0, -39350.82725892392, 187500.0, 187500.0, 187500.0, 187500.0, 187500.0, -88533.40459268149, 0.014, -0.004, 0.982, 192.0, 0.0, 0.0, 0.0, 0.0, 0.0, 0.0, 0.0, 0.0, 0.0, 1.717237944461162E9, 0.0, 2024-06-01 03:32:24.461
107.0, 187500.0, -39444.32460598047, 187500.0, 187500.0, 187500.0, 187500.0, 187500.0, -88615.70371576592, 0.014, -0.004, 0.982, 192.0, 0.0, 0.0, 0.0, 0.0, 0.0, 0.0, 0.0, 0.0, 0.0, 1.7172379444611764E9, 0.0, 2024-06-01 03:32:24.461
108.0, 187500.0, -39491.48678678117, 187500.0, 187500.0, 187500.0, 187500.0, 187500.0, -88650.46067839392, 0.014, -0.004, 0.982, 192.0, 0.0, 0.0, 0.0, 0.0, 0.0, 0.0, 0.0, 0.0, 0.0, 1.71723794446119E9, 0.0, 2024-06-01 03:32:24.461
109.0, 187500.0, -39402.81741652697, 187500.0, 187500.0, 187500.0, 187500.0, 187500.0, -88553.56586618017, 0.014, -0.004, 0.982, 192.0, 0.0, 0.0, 0.0, 0.0, 0.0, 0.0, 0.0, 0.0, 0.0, 1.7172379444612033E9, 0.0, 2024-06-01 03:32:24.461
110.0, 187500.0, -39356.4375467822, 187500.0, 187500.0, 187500.0, 187500.0, 187500.0, -88524.24037745481, 0.012, -0.004, 0.976, 192.0, 0.0, 96.0, 255.0, 224.0, 30.0, 128.0, 0.0, 0.0, 0.0, 1.717237944461217E9, 0.0, 2024-06-01 03:32:24.461
111.0, 187500.0, -39440.94949256772, 187500.0, 187500.0, 187500.0, 187500.0, 187500.0, -88612.26154711981, 0.012, -0.004, 0.976, 192.0, 0.0, 0.0, 0.0, 0.0, 0.0, 0.0, 0.0, 0.0, 0.0, 1.717237944461231E9, 0.0, 2024-06-01 03:32:24.461
112.0, 187500.0, -39487.4187692903, 187500.0, 187500.0, 187500.0, 187500.0, 187500.0, -88644.33630041317, 0.012, -0.004, 0.976, 192.0, 0.0, 0.0, 0.0, 0.0, 0.0, 0.0, 0.0, 0.0, 0.0, 1.7172379444612446E9, 0.0, 2024-06-01 03:32:24.461
113.0, 187500.0, -39395.262526901075, 187500.0, 187500.0, 187500.0, 187500.0, 187500.0, -88551.30833999018, 0.012, -0.004, 0.976, 192.0, 0.0, 0.0, 0.0, 0.0, 0.0, 0.0, 0.0, 0.0, 0.0, 1.717237944461258E9, 0.0, 2024-06-01 03:32:24.461
114.0, 187500.0, -39333.05762208195, 187500.0, 187500.0, 187500.0, 187500.0, 187500.0, -88520.08295298612, 0.012, -0.004, 0.976, 192.0, 0.0, 0.0, 0.0, 0.0, 0.0, 0.0, 0.0, 0.0, 0.0, 1.71723794446128E9, 0.0, 2024-06-01 03:32:24.461
115.0, 187500.0, -39422.53165513655, 187500.0, 187500.0, 187500.0, 187500.0, 187500.0, -88628.15363742753, 0.012, -0.004, 0.976, 192.0, 0.0, 0.0, 0.0, 0.0, 0.0, 0.0, 0.0, 0.0, 0.0, 1.7172379444612937E9, 0.0, 2024-06-01 03:32:24.461
116.0, 187500.0, -39498.639345006864, 187500.0, 187500.0, 187500.0, 187500.0, 187500.0, -88670.3313792147, 0.012, -0.004, 0.976, 192.0, 0.0, 0.0, 0.0, 0.0, 0.0, 0.0, 0.0, 0.0, 0.0, 1.7172379444613075E9, 0.0, 2024-06-01 03:32:24.461
117.0, 187500.0, -39432.47818141916, 187500.0, 187500.0, 187500.0, 187500.0, 187500.0, -88584.90301190651, 0.012, -0.004, 0.976, 192.0, 0.0, 0.0, 0.0, 0.0, 0.0, 0.0, 0.0, 0.0, 0.0, 1.717237944461321E9, 0.0, 2024-06-01 03:32:24.461
118.0, 187500.0, -39346.043985610486, 187500.0, 187500.0, 187500.0, 187500.0, 187500.0, -88519.92649077493, 0.012, -0.004, 0.976, 192.0, 0.0, 0.0, 0.0, 0.0, 0.0, 0.0, 0.0, 0.0, 0.0, 1.7172379444613347E9, 0.0, 2024-06-01 03:32:24.461
119.0, 187500.0, -39402.593899082414, 187500.0, 187500.0, 187500.0, 187500.0, 187500.0, -88615.88252972157, 0.012, -0.004, 0.976, 192.0, 0.0, 0.0, 0.0, 0.0, 0.0, 0.0, 0.0, 0.0, 0.0, 1.717237944461349E9, 0.0, 2024-06-01 03:32:24.461
120.0, 187500.0, -39486.81527219001, 187500.0, 187500.0, 187500.0, 187500.0, 187500.0, -88678.10978628515, 0.012, -0.004, 0.976, 192.0, 0.0, 96.0, 255.0, 224.0, 30.0, 128.0, 0.0, 0.0, 0.0, 1.7172379444613628E9, 0.0, 2024-06-01 03:32:24.461
121.0, 187500.0, -39431.65116687431, 187500.0, 187500.0, 187500.0, 187500.0, 187500.0, -88599.78927371374, 0.012, -0.004, 0.976, 192.0, 0.0, 0.0, 0.0, 0.0, 0.0, 0.0, 0.0, 0.0, 0.0, 1.717237944461377E9, 0.0, 2024-06-01 03:32:24.461
122.0, 187500.0, -39336.09745932787, 187500.0, 187500.0, 187500.0, 187500.0, 187500.0, -88500.30165914318, 0.012, -0.004, 0.976, 192.0, 0.0, 0.0, 0.0, 0.0, 0.0, 0.0, 0.0, 0.0, 0.0, 1.7172379444613905E9, 0.0, 2024-06-01 03:32:24.461
123.0, 187500.0, -39373.514279546056, 187500.0, 187500.0, 187500.0, 187500.0, 187500.0, -88568.31801752068, 0.012, -0.004, 0.976, 192.0, 0.0, 0.0, 0.0, 0.0, 0.0, 0.0, 0.0, 0.0, 0.0, 1.717237944461404E9, 0.0, 2024-06-01 03:32:24.461
124.0, 187500.0, -39467.391606258345, 187500.0, 187500.0, 187500.0, 187500.0, 187500.0, -88665.65986462354, 0.012, -0.004, 0.976, 192.0, 0.0, 0.0, 0.0, 0.0, 0.0, 0.0, 0.0, 0.0, 0.0, 1.7172379444614177E9, 0.0, 2024-06-01 03:32:24.461
125.0, 187500.0, -39452.795917129035, 187500.0, 187500.0, 187500.0, 187500.0, 187500.0, -88618.5200355673, 0.012, -0.004, 0.976, 192.0, 0.0, 0.0, 0.0, 0.0, 0.0, 0.0, 0.0, 0.0, 0.0, 1.7172379444614336E9, 0.0, 2024-06-01 03:32:24.461
126.0, 187500.0, -39368.10515738787, 187500.0, 187500.0, 187500.0, 187500.0, 187500.0, -88533.35988919258, 0.012, -0.004, 0.976, 192.0, 0.0, 0.0, 0.0, 0.0, 0.0, 0.0, 0.0, 0.0, 0.0, 1.7172379444614472E9, 0.0, 2024-06-01 03:32:24.461
127.0, 187500.0, -39370.96618067815, 187500.0, 187500.0, 187500.0, 187500.0, 187500.0, -88584.05364561721, 0.012, -0.004, 0.976, 192.0, 0.0, 0.0, 0.0, 0.0, 0.0, 0.0, 0.0, 0.0, 0.0, 1.7172379444614608E9, 0.0, 2024-06-01 03:32:24.461
128.0, 187500.0, -39457.42272823128, 187500.0, 187500.0, 187500.0, 187500.0, 187500.0, -88677.2827717403, 0.012, -0.004, 0.976, 192.0, 0.0, 0.0, 0.0, 0.0, 0.0, 0.0, 0.0, 0.0, 0.0, 1.717237944461475E9, 0.0, 2024-06-01 03:32:24.461
129.0, 187500.0, -39455.05344331902, 187500.0, 187500.0, 187500.0, 187500.0, 187500.0, -88647.30908242572, 0.012, -0.004, 0.976, 192.0, 0.0, 0.0, 0.0, 0.0, 0.0, 0.0, 0.0, 0.0, 0.0, 1.717237944461496E9, 0.0, 2024-06-01 03:32:24.461
130.0, 187500.0, -39361.10906137336, 187500.0, 187500.0, 187500.0, 187500.0, 187500.0, -88529.38127867953, 0.014, -0.004, 0.978, 192.0, 0.0, 112.0, 255.0, 224.0, 30.0, 144.0, 0.0, 0.0, 0.0, 1.71723794446151E9, 0.0, 2024-06-01 03:32:24.461
131.0, 187500.0, -39352.70480545817, 187500.0, 187500.0, 187500.0, 187500.0, 187500.0, -88530.58827288012, 0.014, -0.004, 0.978, 192.0, 0.0, 0.0, 0.0, 0.0, 0.0, 0.0, 0.0, 0.0, 0.0, 1.717237944461524E9, 0.0, 2024-06-01 03:32:24.461
132.0, 187500.0, -39436.70266112121, 187500.0, 187500.0, 187500.0, 187500.0, 187500.0, -88620.59874780163, 0.014, -0.004, 0.978, 192.0, 0.0, 0.0, 0.0, 0.0, 0.0, 0.0, 0.0, 0.0, 0.0, 1.7172379444615376E9, 0.0, 2024-06-01 03:32:24.461
133.0, 187500.0, -39471.97371387169, 187500.0, 187500.0, 187500.0, 187500.0, 187500.0, -88655.8250970632, 0.014, -0.004, 0.978, 192.0, 0.0, 0.0, 0.0, 0.0, 0.0, 0.0, 0.0, 0.0, 0.0, 1.7172379444615512E9, 0.0, 2024-06-01 03:32:24.461
134.0, 187500.0, -39382.23145988363, 187500.0, 187500.0, 187500.0, 187500.0, 187500.0, -88576.96814262487, 0.014, -0.004, 0.978, 192.0, 0.0, 0.0, 0.0, 0.0, 0.0, 0.0, 0.0, 0.0, 0.0, 1.7172379444615648E9, 0.0, 2024-06-01 03:32:24.461
135.0, 187500.0, -39344.47936349861, 187500.0, 187500.0, 187500.0, 187500.0, 187500.0, -88566.64163668653, 0.014, -0.004, 0.978, 192.0, 0.0, 0.0, 0.0, 0.0, 0.0, 0.0, 0.0, 0.0, 0.0, 1.7172379444615784E9, 0.0, 2024-06-01 03:32:24.461
136.0, 187500.0, -39429.95243429571, 187500.0, 187500.0, 187500.0, 187500.0, 187500.0, -88642.19053294546, 0.014, -0.004, 0.978, 192.0, 0.0, 0.0, 0.0, 0.0, 0.0, 0.0, 0.0, 0.0, 0.0, 1.717237944461592E9, 0.0, 2024-06-01 03:32:24.461
137.0, 187500.0, -39476.89109765185, 187500.0, 187500.0, 187500.0, 187500.0, 187500.0, -88673.21475424943, 0.014, -0.004, 0.978, 192.0, 0.0, 0.0, 0.0, 0.0, 0.0, 0.0, 0.0, 0.0, 0.0, 1.7172379444616053E9, 0.0, 2024-06-01 03:32:24.461
138.0, 187500.0, -39392.602669310894, 187500.0, 187500.0, 187500.0, 187500.0, 187500.0, -88594.84953818913, 0.014, -0.004, 0.978, 192.0, 0.0, 0.0, 0.0, 0.0, 0.0, 0.0, 0.0, 0.0, 0.0, 1.717237944461619E9, 0.0, 2024-06-01 03:32:24.461
139.0, 187500.0, -39340.67956694121, 187500.0, 187500.0, 187500.0, 187500.0, 187500.0, -88551.84478185711, 0.014, -0.004, 0.978, 192.0, 0.0, 0.0, 0.0, 0.0, 0.0, 0.0, 0.0, 0.0, 0.0, 1.7172379444616325E9, 0.0, 2024-06-01 03:32:24.461
140.0, 187500.0, -39399.799931025496, 187500.0, 187500.0, 187500.0, 187500.0, 187500.0, -88623.57152981419, 0.018000000000000002, -0.002, 0.976, 192.0, 0.0, 144.0, 255.0, 240.0, 30.0, 128.0, 0.0, 0.0, 0.0, 1.717237944461646E9, 0.0, 2024-06-01 03:32:24.461
0.0, 0.0, 0.0, 0.0, 0.0, 0.0, 0.0, 0.0, 0.0, 0.018000000000000002, -0.006, 0.98, 192.0, 0.0, 144.0, 255.0, 208.0, 30.0, 160.0, 0.0, 0.0, 0.0, 1.7172379444995208E9, 0.0, 2024-06-01 03:32:24.499
1.0, 187500.0, -37866.85024104718, 187500.0, 187500.0, 187500.0, 187500.0, 187500.0, -92767.76376578376, 0.018000000000000002, -0.006, 0.98, 192.0, 0.0, 0.0, 0.0, 0.0, 0.0, 0.0, 0.0, 0.0, 0.0, 1.7172379449826937E9, 0.0, 2024-06-01 03:32:24.982
2.0, 187500.0, -37923.51191324138, 187500.0, 187500.0, 187500.0, 187500.0, 187500.0, -92828.7616764023, 0.018000000000000002, -0.006, 0.98, 192.0, 0.0, 0.0, 0.0, 0.0, 0.0, 0.0, 0.0, 0.0, 0.0, 1.7172379449827445E9, 0.0, 2024-06-01 03:32:24.982
3.0, 187500.0, -37991.99765825244, 187500.0, 187500.0, 187500.0, 187500.0, 187500.0, -92870.49238330036, 0.018000000000000002, -0.006, 0.98, 192.0, 0.0, 0.0, 0.0, 0.0, 0.0, 0.0, 0.0, 0.0, 0.0, 1.7172379449828084E9, 0.0, 2024-06-01 03:32:24.982
4.0, 187500.0, -37929.16690458857, 187500.0, 187500.0, 187500.0, 187500.0, 187500.0, -92794.31763819668, 0.018000000000000002, -0.006, 0.98, 192.0, 0.0, 0.0, 0.0, 0.0, 0.0, 0.0, 0.0, 0.0, 0.0, 1.7172379449828403E9, 0.0, 2024-06-01 03:32:24.982
5.0, 187500.0, -37856.344921153184, 187500.0, 187500.0, 187500.0, 187500.0, 187500.0, -92748.16128589647, 0.018000000000000002, -0.006, 0.98, 192.0, 0.0, 0.0, 0.0, 0.0, 0.0, 0.0, 0.0, 0.0, 0.0, 1.717237944982868E9, 0.0, 2024-06-01 03:32:24.982
6.0, 187500.0, -37904.11059905417, 187500.0, 187500.0, 187500.0, 187500.0, 187500.0, -92804.82295809066, 0.018000000000000002, -0.006, 0.98, 192.0, 0.0, 0.0, 0.0, 0.0, 0.0, 0.0, 0.0, 0.0, 0.0, 1.7172379449828956E9, 0.0, 2024-06-01 03:32:24.982
7.0, 187500.0, -37990.72360881849, 187500.0, 187500.0, 187500.0, 187500.0, 187500.0, -92871.9228949455, 0.018000000000000002, -0.006, 0.98, 192.0, 0.0, 0.0, 0.0, 0.0, 0.0, 0.0, 0.0, 0.0, 0.0, 1.7172379449829128E9, 0.0, 2024-06-01 03:32:24.982
8.0, 187500.0, -37965.57789630627, 187500.0, 187500.0, 187500.0, 187500.0, 187500.0, -92817.29523149673, 0.018000000000000002, 0.002, 0.98, 192.0, 0.0, 144.0, 0.0, 16.0, 30.0, 160.0, 0.0, 0.0, 0.0, 1.71723794498293E9, 0.0, 2024-06-01 03:32:24.982
9.0, 187500.0, -37877.042636518796, 187500.0, 187500.0, 187500.0, 187500.0, 187500.0, -92742.72981199382, 0.018000000000000002, 0.002, 0.98, 192.0, 0.0, 0.0, 0.0, 0.0, 0.0, 0.0, 0.0, 0.0, 0.0, 1.7172379449829478E9, 0.0, 2024-06-01 03:32:24.982
10.0, 187500.0, -37892.51004368187, 187500.0, 187500.0, 187500.0, 187500.0, 187500.0, -92793.04358876272, 0.018000000000000002, 0.002, 0.98, 192.0, 0.0, 0.0, 0.0, 0.0, 0.0, 0.0, 0.0, 0.0, 0.0, 1.7172379449829645E9, 0.0, 2024-06-01 03:32:24.982
11.0, 187500.0, -37977.37961737867, 187500.0, 187500.0, 187500.0, 187500.0, 187500.0, -92864.09978438614, 0.018000000000000002, 0.002, 0.98, 192.0, 0.0, 0.0, 0.0, 0.0, 0.0, 0.0, 0.0, 0.0, 0.0, 1.7172379449829812E9, 0.0, 2024-06-01 03:32:24.982
12.0, 187500.0, -37959.386463092145, 187500.0, 187500.0, 187500.0, 187500.0, 187500.0, -92823.68783041094, 0.018000000000000002, 0.002, 0.98, 192.0, 0.0, 0.0, 0.0, 0.0, 0.0, 0.0, 0.0, 0.0, 0.0, 1.7172379449829984E9, 0.0, 2024-06-01 03:32:24.982
13.0, 187500.0, -37856.32256940872, 187500.0, 187500.0, 187500.0, 187500.0, 187500.0, -92745.45672481737, 0.018000000000000002, 0.002, 0.98, 192.0, 0.0, 0.0, 0.0, 0.0, 0.0, 0.0, 0.0, 0.0, 0.0, 1.7172379449830153E9, 0.0, 2024-06-01 03:32:24.983
14.0, 187500.0, -37871.45470040497, 187500.0, 187500.0, 187500.0, 187500.0, 187500.0, -92789.55671662769, 0.018000000000000002, 0.002, 0.98, 192.0, 0.0, 0.0, 0.0, 0.0, 0.0, 0.0, 0.0, 0.0, 0.0, 1.7172379449830322E9, 0.0, 2024-06-01 03:32:24.983
15.0, 187500.0, -37974.38448362166, 187500.0, 187500.0, 187500.0, 187500.0, 187500.0, -92887.50206083084, 0.018000000000000002, 0.002, 0.98, 192.0, 0.0, 0.0, 0.0, 0.0, 0.0, 0.0, 0.0, 0.0, 0.0, 1.717237944983049E9, 0.0, 2024-06-01 03:32:24.983
16.0, 187500.0, -37984.93450700456, 187500.0, 187500.0, 187500.0, 187500.0, 187500.0, -92855.80728719322, 0.018000000000000002, 0.002, 0.98, 192.0, 0.0, 0.0, 0.0, 0.0, 0.0, 0.0, 0.0, 0.0, 0.0, 1.7172379449830656E9, 0.0, 2024-06-01 03:32:24.983
17.0, 187500.0, -37888.419674446544, 187500.0, 187500.0, 187500.0, 187500.0, 187500.0, -92750.95525395338, 0.018000000000000002, 0.002, 0.98, 192.0, 0.0, 0.0, 0.0, 0.0, 0.0, 0.0, 0.0, 0.0, 0.0, 1.7172379449830823E9, 0.0, 2024-06-01 03:32:24.983
18.0, 187500.0, -37872.19230797199, 187500.0, 187500.0, 187500.0, 187500.0, 187500.0, -92774.51399260927, 0.02, 0.0, 0.98, 192.0, 0.0, 160.0, 0.0, 0.0, 30.0, 160.0, 0.0, 0.0, 0.0, 1.7172379449830992E9, 0.0, 2024-06-01 03:32:24.983
19.0, 187500.0, -37958.09006191374, 187500.0, 187500.0, 187500.0, 187500.0, 187500.0, -92861.52933377378, 0.02, 0.0, 0.98, 192.0, 0.0, 0.0, 0.0, 0.0, 0.0, 0.0, 0.0, 0.0, 0.0, 1.7172379449831803E9, 0.0, 2024-06-01 03:32:24.983
20.0, 187500.0, -37980.218288924494, 187500.0, 187500.0, 187500.0, 187500.0, 187500.0, -92854.04149938124, 0.02, 0.0, 0.98, 192.0, 0.0, 0.0, 0.0, 0.0, 0.0, 0.0, 0.0, 0.0, 0.0, 1.7172379449831977E9, 0.0, 2024-06-01 03:32:24.983
21.0, 187500.0, -37881.91531681005, 187500.0, 187500.0, 187500.0, 187500.0, 187500.0, -92761.50527733628, 0.02, 0.0, 0.98, 192.0, 0.0, 0.0, 0.0, 0.0, 0.0, 0.0, 0.0, 0.0, 0.0, 1.7172379449832141E9, 0.0, 2024-06-01 03:32:24.983
22.0, 187500.0, -37847.113650693136, 187500.0, 187500.0, 187500.0, 187500.0, 187500.0, -92751.93873070941, 0.02, 0.0, 0.98, 192.0, 0.0, 0.0, 0.0, 0.0, 0.0, 0.0, 0.0, 0.0, 0.0, 1.7172379449832308E9, 0.0, 2024-06-01 03:32:24.983
23.0, 187500.0, -37923.82483766376, 187500.0, 187500.0, 187500.0, 187500.0, 187500.0, -92840.45163875242, 0.02, 0.0, 0.98, 192.0, 0.0, 0.0, 0.0, 0.0, 0.0, 0.0, 0.0, 0.0, 0.0, 1.7172379449832475E9, 0.0, 2024-06-01 03:32:24.983
24.0, 187500.0, -37979.65949531311, 187500.0, 187500.0, 187500.0, 187500.0, 187500.0, -92866.44671755395, 0.02, 0.0, 0.98, 192.0, 0.0, 0.0, 0.0, 0.0, 0.0, 0.0, 0.0, 0.0, 0.0, 1.7172379449832637E9, 0.0, 2024-06-01 03:32:24.983
25.0, 187500.0, -37917.38753526063, 187500.0, 187500.0, 187500.0, 187500.0, 187500.0, -92780.39250140102, 0.02, 0.0, 0.98, 192.0, 0.0, 0.0, 0.0, 0.0, 0.0, 0.0, 0.0, 0.0, 0.0, 1.7172379449832804E9, 0.0, 2024-06-01 03:32:24.983
26.0, 187500.0, -37855.853182775165, 187500.0, 187500.0, 187500.0, 187500.0, 187500.0, -92736.2925095907, 0.02, 0.0, 0.98, 192.0, 0.0, 0.0, 0.0, 0.0, 0.0, 0.0, 0.0, 0.0, 0.0, 1.7172379449832969E9, 0.0, 2024-06-01 03:32:24.983
27.0, 187500.0, -37909.98910784592, 187500.0, 187500.0, 187500.0, 187500.0, 187500.0, -92813.02604830576, 0.02, 0.0, 0.98, 192.0, 0.0, 0.0, 0.0, 0.0, 0.0, 0.0, 0.0, 0.0, 0.0, 1.7172379449833133E9, 0.0, 2024-06-01 03:32:24.983
28.0, 187500.0, -37978.38544587916, 187500.0, 187500.0, 187500.0, 187500.0, 187500.0, -92873.66633101301, 0.012, 0.002, 0.978, 192.0, 0.0, 96.0, 0.0, 16.0, 30.0, 144.0, 0.0, 0.0, 0.0, 1.71723794498333E9, 0.0, 2024-06-01 03:32:24.983
29.0, 187500.0, -37927.33406154324, 187500.0, 187500.0, 187500.0, 187500.0, 187500.0, -92805.44880693541, 0.012, 0.002, 0.978, 192.0, 0.0, 0.0, 0.0, 0.0, 0.0, 0.0, 0.0, 0.0, 0.0, 1.7172379449833472E9, 0.0, 2024-06-01 03:32:24.983
30.0, 187500.0, -37849.86291526114, 187500.0, 187500.0, 187500.0, 187500.0, 187500.0, -92750.82114348664, 0.012, 0.002, 0.978, 192.0, 0.0, 0.0, 0.0, 0.0, 0.0, 0.0, 0.0, 0.0, 0.0, 1.717237944983364E9, 0.0, 2024-06-01 03:32:24.983
31.0, 187500.0, -37887.77147385734, 187500.0, 187500.0, 187500.0, 187500.0, 187500.0, -92816.40116171852, 0.012, 0.002, 0.978, 192.0, 0.0, 0.0, 0.0, 0.0, 0.0, 0.0, 0.0, 0.0, 0.0, 1.7172379449833806E9, 0.0, 2024-06-01 03:32:24.983
32.0, 187500.0, -37962.403948593615, 187500.0, 187500.0, 187500.0, 187500.0, 187500.0, -92866.62553150959, 0.012, 0.002, 0.978, 192.0, 0.0, 0.0, 0.0, 0.0, 0.0, 0.0, 0.0, 0.0, 0.0, 1.7172379449833972E9, 0.0, 2024-06-01 03:32:24.983
33.0, 187500.0, -37931.46913426747, 187500.0, 187500.0, 187500.0, 187500.0, 187500.0, -92799.2573737213, 0.012, 0.002, 0.978, 192.0, 0.0, 0.0, 0.0, 0.0, 0.0, 0.0, 0.0, 0.0, 0.0, 1.717237944983414E9, 0.0, 2024-06-01 03:32:24.983
34.0, 187500.0, -37851.516944350835, 187500.0, 187500.0, 187500.0, 187500.0, 187500.0, -92712.26438430123, 0.012, 0.002, 0.978, 192.0, 0.0, 0.0, 0.0, 0.0, 0.0, 0.0, 0.0, 0.0, 0.0, 1.7172379449834633E9, 0.0, 2024-06-01 03:32:24.983
35.0, 187500.0, -37886.184500001014, 187500.0, 187500.0, 187500.0, 187500.0, 187500.0, -92774.22341993135, 0.012, 0.002, 0.978, 192.0, 0.0, 0.0, 0.0, 0.0, 0.0, 0.0, 0.0, 0.0, 0.0, 1.7172379449834802E9, 0.0, 2024-06-01 03:32:24.983
36.0, 187500.0, -37967.88012598516, 187500.0, 187500.0, 187500.0, 187500.0, 187500.0, -92871.81113622322, 0.012, 0.002, 0.978, 192.0, 0.0, 0.0, 0.0, 0.0, 0.0, 0.0, 0.0, 0.0, 0.0, 1.717237944983497E9, 0.0, 2024-06-01 03:32:24.983
37.0, 187500.0, -37938.979320404454, 187500.0, 187500.0, 187500.0, 187500.0, 187500.0, -92830.19218804744, 0.01, 0.002, 0.982, 192.0, 0.0, 80.0, 0.0, 16.0, 30.0, 176.0, 0.0, 0.0, 0.0, 1.7172379449835136E9, 0.0, 2024-06-01 03:32:24.983
38.0, 187500.0, -37861.95520901147, 187500.0, 187500.0, 187500.0, 187500.0, 187500.0, -92752.5422278097, 0.01, 0.002, 0.982, 192.0, 0.0, 0.0, 0.0, 0.0, 0.0, 0.0, 0.0, 0.0, 0.0, 1.7172379449835308E9, 0.0, 2024-06-01 03:32:24.983
39.0, 187500.0, -37875.075683006726, 187500.0, 187500.0, 187500.0, 187500.0, 187500.0, -92790.54019338373, 0.01, 0.002, 0.982, 192.0, 0.0, 0.0, 0.0, 0.0, 0.0, 0.0, 0.0, 0.0, 0.0, 1.7172379449835474E9, 0.0, 2024-06-01 03:32:24.983
40.0, 187500.0, -37947.96472167548, 187500.0, 187500.0, 187500.0, 187500.0, 187500.0, -92859.7635459618, 0.01, 0.002, 0.982, 192.0, 0.0, 0.0, 0.0, 0.0, 0.0, 0.0, 0.0, 0.0, 0.0, 1.7172379449835641E9, 0.0, 2024-06-01 03:32:24.983
41.0, 187500.0, -37950.24459960993, 187500.0, 187500.0, 187500.0, 187500.0, 187500.0, -92828.51580721329, 0.01, 0.002, 0.982, 192.0, 0.0, 0.0, 0.0, 0.0, 0.0, 0.0, 0.0, 0.0, 0.0, 1.7172379449835808E9, 0.0, 2024-06-01 03:32:24.983
42.0, 187500.0, -37867.63255210311, 187500.0, 187500.0, 187500.0, 187500.0, 187500.0, -92740.22641661482, 0.01, 0.002, 0.982, 192.0, 0.0, 0.0, 0.0, 0.0, 0.0, 0.0, 0.0, 0.0, 0.0, 1.7172379449835975E9, 0.0, 2024-06-01 03:32:24.983
43.0, 187500.0, -37860.882325277606, 187500.0, 187500.0, 187500.0, 187500.0, 187500.0, -92776.12331821006, 0.01, 0.002, 0.982, 192.0, 0.0, 0.0, 0.0, 0.0, 0.0, 0.0, 0.0, 0.0, 0.0, 1.717237944983614E9, 0.0, 2024-06-01 03:32:24.983
44.0, 187500.0, -37934.39721279111, 187500.0, 187500.0, 187500.0, 187500.0, 187500.0, -92859.40591805053, 0.01, 0.002, 0.982, 192.0, 0.0, 0.0, 0.0, 0.0, 0.0, 0.0, 0.0, 0.0, 0.0, 1.7172379449836316E9, 0.0, 2024-06-01 03:32:24.983
45.0, 187500.0, -37965.15321316162, 187500.0, 187500.0, 187500.0, 187500.0, 187500.0, -92860.43409829547, 0.01, 0.002, 0.982, 192.0, 0.0, 0.0, 0.0, 0.0, 0.0, 0.0, 0.0, 0.0, 0.0, 1.7172379449836493E9, 0.0, 2024-06-01 03:32:24.983
46.0, 187500.0, -37893.06883729325, 187500.0, 187500.0, 187500.0, 187500.0, 187500.0, -92757.23609414532, 0.01, 0.002, 0.982, 192.0, 0.0, 0.0, 0.0, 0.0, 0.0, 0.0, 0.0, 0.0, 0.0, 1.7172379449836657E9, 0.0, 2024-06-01 03:32:24.983
47.0, 187500.0, -37850.44406061698, 187500.0, 187500.0, 187500.0, 187500.0, 187500.0, -92733.90087293397, 0.014, 0.004, 0.982, 192.0, 0.0, 112.0, 0.0, 32.0, 30.0, 176.0, 0.0, 0.0, 0.0, 1.7172379449836829E9, 0.0, 2024-06-01 03:32:24.983
48.0, 187500.0, -37921.88023589614, 187500.0, 187500.0, 187500.0, 187500.0, 187500.0, -92832.24854853733, 0.014, 0.004, 0.982, 192.0, 0.0, 0.0, 0.0, 0.0, 0.0, 0.0, 0.0, 0.0, 0.0, 1.7172379449837E9, 0.0, 2024-06-01 03:32:24.983
49.0, 187500.0, -37970.003541708415, 187500.0, 187500.0, 187500.0, 187500.0, 187500.0, -92863.54099077475, 0.014, 0.004, 0.982, 192.0, 0.0, 0.0, 0.0, 0.0, 0.0, 0.0, 0.0, 0.0, 0.0, 1.7172379449837458E9, 0.0, 2024-06-01 03:32:24.983
50.0, 187500.0, -37894.991087316404, 187500.0, 187500.0, 187500.0, 187500.0, 187500.0, -92777.37501589955, 0.014, 0.004, 0.982, 192.0, 0.0, 0.0, 0.0, 0.0, 0.0, 0.0, 0.0, 0.0, 0.0, 1.7172379449837627E9, 0.0, 2024-06-01 03:32:24.983
51.0, 187500.0, -37837.52475232181, 187500.0, 187500.0, 187500.0, 187500.0, 187500.0, -92758.1972191569, 0.014, 0.004, 0.982, 192.0, 0.0, 0.0, 0.0, 0.0, 0.0, 0.0, 0.0, 0.0, 0.0, 1.7172379449837801E9, 0.0, 2024-06-01 03:32:24.983
52.0, 187500.0, -37910.63730843512, 187500.0, 187500.0, 187500.0, 187500.0, 187500.0, -92843.08914459815, 0.014, 0.004, 0.982, 192.0, 0.0, 0.0, 0.0, 0.0, 0.0, 0.0, 0.0, 0.0, 0.0, 1.717237944983797E9, 0.0, 2024-06-01 03:32:24.983
53.0, 187500.0, -37979.99477147994, 187500.0, 187500.0, 187500.0, 187500.0, 187500.0, -92880.26009562732, 0.014, 0.004, 0.982, 192.0, 0.0, 0.0, 0.0, 0.0, 0.0, 0.0, 0.0, 0.0, 0.0, 1.7172379449838135E9, 0.0, 2024-06-01 03:32:24.983
54.0, 187500.0, -37921.23203530694, 187500.0, 187500.0, 187500.0, 187500.0, 187500.0, -92797.67039986496, 0.014, 0.004, 0.982, 192.0, 0.0, 0.0, 0.0, 0.0, 0.0, 0.0, 0.0, 0.0, 0.0, 1.7172379449838302E9, 0.0, 2024-06-01 03:32:24.983
55.0, 187500.0, -37848.58886582719, 187500.0, 187500.0, 187500.0, 187500.0, 187500.0, -92739.10882939206, 0.014, 0.004, 0.982, 192.0, 0.0, 0.0, 0.0, 0.0, 0.0, 0.0, 0.0, 0.0, 0.0, 1.717237944983847E9, 0.0, 2024-06-01 03:32:24.983
56.0, 187500.0, -37885.625706389634, 187500.0, 187500.0, 187500.0, 187500.0, 187500.0, -92808.33218197015, 0.014, 0.004, 0.982, 192.0, 0.0, 0.0, 0.0, 0.0, 0.0, 0.0, 0.0, 0.0, 0.0, 1.7172379449838634E9, 0.0, 2024-06-01 03:32:24.983
57.0, 187500.0, -37955.36314909019, 187500.0, 187500.0, 187500.0, 187500.0, 187500.0, -92839.95990037441, 0.018000000000000002, -0.004, 0.984, 192.0, 0.0, 144.0, 255.0, 224.0, 30.0, 192.0, 0.0, 0.0, 0.0, 1.717237944983881E9, 0.0, 2024-06-01 03:32:24.983
58.0, 187500.0, -37912.93953811402, 187500.0, 187500.0, 187500.0, 187500.0, 187500.0, -92767.40613787249, 0.018000000000000002, -0.004, 0.984, 192.0, 0.0, 0.0, 0.0, 0.0, 0.0, 0.0, 0.0, 0.0, 0.0, 1.7172379449838986E9, 0.0, 2024-06-01 03:32:24.983
59.0, 187500.0, -37833.16616215303, 187500.0, 187500.0, 187500.0, 187500.0, 187500.0, -92735.93488167941, 0.018000000000000002, -0.004, 0.984, 192.0, 0.0, 0.0, 0.0, 0.0, 0.0, 0.0, 0.0, 0.0, 0.0, 1.7172379449839153E9, 0.0, 2024-06-01 03:32:24.983
60.0, 187500.0, -37865.37502591313, 187500.0, 187500.0, 187500.0, 187500.0, 187500.0, -92810.6567633935, 0.018000000000000002, -0.004, 0.984, 192.0, 0.0, 0.0, 0.0, 0.0, 0.0, 0.0, 0.0, 0.0, 0.0, 1.717237944983932E9, 0.0, 2024-06-01 03:32:24.983
61.0, 187500.0, -37950.49046879893, 187500.0, 187500.0, 187500.0, 187500.0, 187500.0, -92874.80626998022, 0.018000000000000002, -0.004, 0.984, 192.0, 0.0, 0.0, 0.0, 0.0, 0.0, 0.0, 0.0, 0.0, 0.0, 1.7172379449839492E9, 0.0, 2024-06-01 03:32:24.983
62.0, 187500.0, -37934.59837849121, 187500.0, 187500.0, 187500.0, 187500.0, 187500.0, -92811.908461083, 0.018000000000000002, -0.004, 0.984, 192.0, 0.0, 0.0, 0.0, 0.0, 0.0, 0.0, 0.0, 0.0, 0.0, 1.717237944983966E9, 0.0, 2024-06-01 03:32:24.983
63.0, 187500.0, -37846.063118703736, 187500.0, 187500.0, 187500.0, 187500.0, 187500.0, -92734.86199794555, 0.018000000000000002, -0.004, 0.984, 192.0, 0.0, 0.0, 0.0, 0.0, 0.0, 0.0, 0.0, 0.0, 0.0, 1.7172379449839828E9, 0.0, 2024-06-01 03:32:24.983
64.0, 187500.0, -37844.00675821385, 187500.0, 187500.0, 187500.0, 187500.0, 187500.0, -92771.72002455236, 0.018000000000000002, -0.004, 0.984, 192.0, 0.0, 0.0, 0.0, 0.0, 0.0, 0.0, 0.0, 0.0, 0.0, 1.7172379449840603E9, 0.0, 2024-06-01 03:32:24.984
65.0, 187500.0, -37926.88702665413, 187500.0, 187500.0, 187500.0, 187500.0, 187500.0, -92845.68194695497, 0.018000000000000002, -0.004, 0.984, 192.0, 0.0, 0.0, 0.0, 0.0, 0.0, 0.0, 0.0, 0.0, 0.0, 1.7172379449840777E9, 0.0, 2024-06-01 03:32:24.984
66.0, 187500.0, -37939.49341052692, 187500.0, 187500.0, 187500.0, 187500.0, 187500.0, -92815.64120240703, 0.018000000000000002, -0.004, 0.984, 192.0, 0.0, 0.0, 0.0, 0.0, 0.0, 0.0, 0.0, 0.0, 0.0, 1.7172379449840946E9, 0.0, 2024-06-01 03:32:24.984
67.0, 187500.0, -37851.315778650736, 187500.0, 187500.0, 187500.0, 187500.0, 187500.0, -92740.40523057047, 0.022, -0.004, 0.988, 192.0, 0.0, 176.0, 255.0, 224.0, 30.0, 224.0, 0.0, 0.0, 0.0, 1.7172379449841113E9, 0.0, 2024-06-01 03:32:24.984
68.0, 187500.0, -37834.28374937579, 187500.0, 187500.0, 187500.0, 187500.0, 187500.0, -92757.70548077888, 0.022, -0.004, 0.988, 192.0, 0.0, 0.0, 0.0, 0.0, 0.0, 0.0, 0.0, 0.0, 0.0, 1.7172379449841254E9, 0.0, 2024-06-01 03:32:24.984
69.0, 187500.0, -37914.12418057015, 187500.0, 187500.0, 187500.0, 187500.0, 187500.0, -92834.2155020494, 0.022, -0.004, 0.988, 192.0, 0.0, 0.0, 0.0, 0.0, 0.0, 0.0, 0.0, 0.0, 0.0, 1.7172379449841387E9, 0.0, 2024-06-01 03:32:24.984
70.0, 187500.0, -37943.96375941799, 187500.0, 187500.0, 187500.0, 187500.0, 187500.0, -92833.99198460484, 0.022, -0.004, 0.988, 192.0, 0.0, 0.0, 0.0, 0.0, 0.0, 0.0, 0.0, 0.0, 0.0, 1.7172379449841523E9, 0.0, 2024-06-01 03:32:24.984
71.0, 187500.0, -37869.264229448345, 187500.0, 187500.0, 187500.0, 187500.0, 187500.0, -92752.7433935098, 0.022, -0.004, 0.988, 192.0, 0.0, 0.0, 0.0, 0.0, 0.0, 0.0, 0.0, 0.0, 0.0, 1.7172379449841654E9, 0.0, 2024-06-01 03:32:24.984
72.0, 187500.0, -37842.26332214634, 187500.0, 187500.0, 187500.0, 187500.0, 187500.0, -92750.55292255318, 0.022, -0.004, 0.988, 192.0, 0.0, 0.0, 0.0, 0.0, 0.0, 0.0, 0.0, 0.0, 0.0, 1.7172379449841788E9, 0.0, 2024-06-01 03:32:24.984
73.0, 187500.0, -37908.82681713424, 187500.0, 187500.0, 187500.0, 187500.0, 187500.0, -92839.73638292986, 0.022, -0.004, 0.988, 192.0, 0.0, 0.0, 0.0, 0.0, 0.0, 0.0, 0.0, 0.0, 0.0, 1.7172379449841924E9, 0.0, 2024-06-01 03:32:24.984
74.0, 187500.0, -37953.731471744955, 187500.0, 187500.0, 187500.0, 187500.0, 187500.0, -92861.19405760695, 0.022, -0.004, 0.988, 192.0, 0.0, 0.0, 0.0, 0.0, 0.0, 0.0, 0.0, 0.0, 0.0, 1.7172379449842055E9, 0.0, 2024-06-01 03:32:24.984
75.0, 187500.0, -37887.14562501259, 187500.0, 187500.0, 187500.0, 187500.0, 187500.0, -92765.43918436041, 0.022, -0.004, 0.988, 192.0, 0.0, 0.0, 0.0, 0.0, 0.0, 0.0, 0.0, 0.0, 0.0, 1.717237944984219E9, 0.0, 2024-06-01 03:32:24.984
76.0, 187500.0, -37822.16910388102, 187500.0, 187500.0, 187500.0, 187500.0, 187500.0, -92728.1341228645, 0.022, -0.004, 0.988, 192.0, 0.0, 0.0, 0.0, 0.0, 0.0, 0.0, 0.0, 0.0, 0.0, 1.7172379449842324E9, 0.0, 2024-06-01 03:32:24.984
77.0, 187500.0, -37869.420691659536, 187500.0, 187500.0, 187500.0, 187500.0, 187500.0, -92803.16892900097, 0.024, -0.006, 0.982, 192.0, 0.0, 192.0, 255.0, 208.0, 30.0, 176.0, 0.0, 0.0, 0.0, 1.7172379449842455E9, 0.0, 2024-06-01 03:32:24.984
78.0, 187500.0, -37952.949160689015, 187500.0, 187500.0, 187500.0, 187500.0, 187500.0, -92855.20379009293, 0.024, -0.006, 0.982, 192.0, 0.0, 0.0, 0.0, 0.0, 0.0, 0.0, 0.0, 0.0, 0.0, 1.7172379449842591E9, 0.0, 2024-06-01 03:32:24.984
79.0, 187500.0, -37906.72575315544, 187500.0, 187500.0, 187500.0, 187500.0, 187500.0, -92793.04358876272, 0.024, -0.006, 0.982, 192.0, 0.0, 0.0, 0.0, 0.0, 0.0, 0.0, 0.0, 0.0, 0.0, 1.7172379449842815E9, 0.0, 2024-06-01 03:32:24.984
80.0, 187500.0, -37832.24974063036, 187500.0, 187500.0, 187500.0, 187500.0, 187500.0, -92741.65692825997, 0.024, -0.006, 0.982, 192.0, 0.0, 0.0, 0.0, 0.0, 0.0, 0.0, 0.0, 0.0, 0.0, 1.717237944984295E9, 0.0, 2024-06-01 03:32:24.984
81.0, 187500.0, -37872.706398094466, 187500.0, 187500.0, 187500.0, 187500.0, 187500.0, -92803.75007435681, 0.024, -0.006, 0.982, 192.0, 0.0, 0.0, 0.0, 0.0, 0.0, 0.0, 0.0, 0.0, 0.0, 1.7172379449843085E9, 0.0, 2024-06-01 03:32:24.984
82.0, 187500.0, -37940.4545355385, 187500.0, 187500.0, 187500.0, 187500.0, 187500.0, -92860.9705401624, 0.024, -0.006, 0.982, 192.0, 0.0, 0.0, 0.0, 0.0, 0.0, 0.0, 0.0, 0.0, 0.0, 1.7172379449843218E9, 0.0, 2024-06-01 03:32:24.984
83.0, 187500.0, -37911.06199157977, 187500.0, 187500.0, 187500.0, 187500.0, 187500.0, -92794.38469343004, 0.024, -0.006, 0.982, 192.0, 0.0, 0.0, 0.0, 0.0, 0.0, 0.0, 0.0, 0.0, 0.0, 1.7172379449843352E9, 0.0, 2024-06-01 03:32:24.984
84.0, 187500.0, -37823.756077737344, 187500.0, 187500.0, 187500.0, 187500.0, 187500.0, -92723.0826286176, 0.024, -0.006, 0.982, 192.0, 0.0, 0.0, 0.0, 0.0, 0.0, 0.0, 0.0, 0.0, 0.0, 1.7172379449843483E9, 0.0, 2024-06-01 03:32:24.984
85.0, 187500.0, -37854.06504321874, 187500.0, 187500.0, 187500.0, 187500.0, 187500.0, -92791.56837362867, 0.024, -0.006, 0.982, 192.0, 0.0, 0.0, 0.0, 0.0, 0.0, 0.0, 0.0, 0.0, 0.0, 1.7172379449843616E9, 0.0, 2024-06-01 03:32:24.984
86.0, 187500.0, -37938.71109947099, 187500.0, 187500.0, 187500.0, 187500.0, 187500.0, -92868.45837455492, 0.024, -0.006, 0.982, 192.0, 0.0, 0.0, 0.0, 0.0, 0.0, 0.0, 0.0, 0.0, 0.0, 1.7172379449843748E9, 0.0, 2024-06-01 03:32:24.984
87.0, 187500.0, -37922.57313997426, 187500.0, 187500.0, 187500.0, 187500.0, 187500.0, -92827.48762696834, 0.024, 0.0, 0.972, 192.0, 0.0, 192.0, 0.0, 0.0, 30.0, 96.0, 0.0, 0.0, 0.0, 1.7172379449843879E9, 0.0, 2024-06-01 03:32:24.984
88.0, 187500.0, -37844.945531480975, 187500.0, 187500.0, 187500.0, 187500.0, 187500.0, -92738.66179450296, 0.024, 0.0, 0.972, 192.0, 0.0, 0.0, 0.0, 0.0, 0.0, 0.0, 0.0, 0.0, 0.0, 1.7172379449844012E9, 0.0, 2024-06-01 03:32:24.984
89.0, 187500.0, -37857.30604616476, 187500.0, 187500.0, 187500.0, 187500.0, 187500.0, -92764.85803900457, 0.024, 0.0, 0.972, 192.0, 0.0, 0.0, 0.0, 0.0, 0.0, 0.0, 0.0, 0.0, 0.0, 1.7172379449844143E9, 0.0, 2024-06-01 03:32:24.984
90.0, 187500.0, -37934.84424768022, 187500.0, 187500.0, 187500.0, 187500.0, 187500.0, -92863.09395588565, 0.024, 0.0, 0.972, 192.0, 0.0, 0.0, 0.0, 0.0, 0.0, 0.0, 0.0, 0.0, 0.0, 1.7172379449844277E9, 0.0, 2024-06-01 03:32:24.984
91.0, 187500.0, -37950.22224786547, 187500.0, 187500.0, 187500.0, 187500.0, 187500.0, -92849.45939176792, 0.024, 0.0, 0.972, 192.0, 0.0, 0.0, 0.0, 0.0, 0.0, 0.0, 0.0, 0.0, 0.0, 1.7172379449844408E9, 0.0, 2024-06-01 03:32:24.984
92.0, 187500.0, -37861.15054621107, 187500.0, 187500.0, 187500.0, 187500.0, 187500.0, -92754.33036736613, 0.024, 0.0, 0.972, 192.0, 0.0, 0.0, 0.0, 0.0, 0.0, 0.0, 0.0, 0.0, 0.0, 1.7172379449844537E9, 0.0, 2024-06-01 03:32:24.984
93.0, 187500.0, -37845.794897770276, 187500.0, 187500.0, 187500.0, 187500.0, 187500.0, -92766.37795762754, 0.024, 0.0, 0.972, 192.0, 0.0, 0.0, 0.0, 0.0, 0.0, 0.0, 0.0, 0.0, 0.0, 1.7172379449844668E9, 0.0, 2024-06-01 03:32:24.984
94.0, 187500.0, -37926.30588129829, 187500.0, 187500.0, 187500.0, 187500.0, 187500.0, -92855.89669417104, 0.024, 0.0, 0.972, 192.0, 0.0, 0.0, 0.0, 0.0, 0.0, 0.0, 0.0, 0.0, 0.0, 1.71723794498448E9, 0.0, 2024-06-01 03:32:24.984
95.0, 187500.0, -37971.74697777593, 187500.0, 187500.0, 187500.0, 187500.0, 187500.0, -92865.68675824246, 0.024, 0.0, 0.972, 192.0, 0.0, 0.0, 0.0, 0.0, 0.0, 0.0, 0.0, 0.0, 0.0, 1.717237944984501E9, 0.0, 2024-06-01 03:32:24.984
96.0, 187500.0, -37897.6956483955, 187500.0, 187500.0, 187500.0, 187500.0, 187500.0, -92775.20689668738, 0.024, 0.0, 0.972, 192.0, 0.0, 0.0, 0.0, 0.0, 0.0, 0.0, 0.0, 0.0, 0.0, 1.717237944984514E9, 0.0, 2024-06-01 03:32:24.984
97.0, 187500.0, -37859.54122061029, 187500.0, 187500.0, 187500.0, 187500.0, 187500.0, -92758.33132962363, 0.022, -0.004, 0.978, 192.0, 0.0, 176.0, 255.0, 224.0, 30.0, 144.0, 0.0, 0.0, 0.0, 1.7172379449845269E9, 0.0, 2024-06-01 03:32:24.984
98.0, 187500.0, -37926.97643363195, 187500.0, 187500.0, 187500.0, 187500.0, 187500.0, -92853.63916798106, 0.022, -0.004, 0.978, 192.0, 0.0, 0.0, 0.0, 0.0, 0.0, 0.0, 0.0, 0.0, 0.0, 1.7172379449845407E9, 0.0, 2024-06-01 03:32:24.984
99.0, 187500.0, -38012.4718561735, 187500.0, 187500.0, 187500.0, 187500.0, 187500.0, -92914.39120941058, 0.022, -0.004, 0.978, 192.0, 0.0, 0.0, 0.0, 0.0, 0.0, 0.0, 0.0, 0.0, 0.0, 1.717237944984554E9, 0.0, 2024-06-01 03:32:24.984
100.0, 187500.0, -37979.100701701725, 187500.0, 187500.0, 187500.0, 187500.0, 187500.0, -92847.33597604466, 0.022, -0.004, 0.978, 192.0, 0.0, 0.0, 0.0, 0.0, 0.0, 0.0, 0.0, 0.0, 0.0, 1.7172379449845672E9, 0.0, 2024-06-01 03:32:24.984
101.0, 187500.0, -37929.03279412184, 187500.0, 187500.0, 187500.0, 187500.0, 187500.0, -92817.87637685257, 0.022, -0.004, 0.978, 192.0, 0.0, 0.0, 0.0, 0.0, 0.0, 0.0, 0.0, 0.0, 0.0, 1.7172379449845805E9, 0.0, 2024-06-01 03:32:24.984
102.0, 187500.0, -37994.81397805381, 187500.0, 187500.0, 187500.0, 187500.0, 187500.0, -92913.05010474326, 0.022, -0.004, 0.978, 192.0, 0.0, 0.0, 0.0, 0.0, 0.0, 0.0, 0.0, 0.0, 0.0, 1.7172379449845936E9, 0.0, 2024-06-01 03:32:24.984
103.0, 187500.0, -38074.11796738124, 187500.0, 187500.0, 187500.0, 187500.0, 187500.0, -92985.80503294528, 0.022, -0.004, 0.978, 192.0, 0.0, 0.0, 0.0, 0.0, 0.0, 0.0, 0.0, 0.0, 0.0, 1.7172379449846067E9, 0.0, 2024-06-01 03:32:24.984
104.0, 187500.0, -38039.04808033086, 187500.0, 187500.0, 187500.0, 187500.0, 187500.0, -92925.16475023804, 0.022, -0.004, 0.978, 192.0, 0.0, 0.0, 0.0, 0.0, 0.0, 0.0, 0.0, 0.0, 0.0, 1.71723794498462E9, 0.0, 2024-06-01 03:32:24.984
105.0, 187500.0, -37983.45929187051, 187500.0, 187500.0, 187500.0, 187500.0, 187500.0, -92875.94620894745, 0.022, -0.004, 0.978, 192.0, 0.0, 0.0, 0.0, 0.0, 0.0, 0.0, 0.0, 0.0, 0.0, 1.7172379449846332E9, 0.0, 2024-06-01 03:32:24.984
106.0, 187500.0, -38034.62243492871, 187500.0, 187500.0, 187500.0, 187500.0, 187500.0, -92955.18314304152, 0.022, -0.004, 0.978, 192.0, 0.0, 0.0, 0.0, 0.0, 0.0, 0.0, 0.0, 0.0, 0.0, 1.7172379449846463E9, 0.0, 2024-06-01 03:32:24.984
107.0, 187500.0, -38126.97984301804, 187500.0, 187500.0, 187500.0, 187500.0, 187500.0, -93045.08185924076, 0.022, -0.006, 0.978, 192.0, 0.0, 176.0, 255.0, 208.0, 30.0, 144.0, 0.0, 0.0, 0.0, 1.7172379449846597E9, 0.0, 2024-06-01 03:32:24.984
108.0, 187500.0, -38106.66210730816, 187500.0, 187500.0, 187500.0, 187500.0, 187500.0, -93002.16650988656, 0.022, -0.006, 0.978, 192.0, 0.0, 0.0, 0.0, 0.0, 0.0, 0.0, 0.0, 0.0, 0.0, 1.7172379449846735E9, 0.0, 2024-06-01 03:32:24.984
109.0, 187500.0, -38014.394106196654, 187500.0, 187500.0, 187500.0, 187500.0, 187500.0, -92930.7303346074, 0.022, -0.006, 0.978, 192.0, 0.0, 0.0, 0.0, 0.0, 0.0, 0.0, 0.0, 0.0, 0.0, 1.7172379449846864E9, 0.0, 2024-06-01 03:32:24.984
110.0, 187500.0, -38056.23657181699, 187500.0, 187500.0, 187500.0, 187500.0, 187500.0, -93010.16843440157, 0.022, -0.006, 0.978, 192.0, 0.0, 0.0, 0.0, 0.0, 0.0, 0.0, 0.0, 0.0, 0.0, 1.7172379449847171E9, 0.0, 2024-06-01 03:32:24.984
111.0, 187500.0, -38166.43067198165, 187500.0, 187500.0, 187500.0, 187500.0, 187500.0, -93098.9719151225, 0.022, -0.006, 0.978, 192.0, 0.0, 0.0, 0.0, 0.0, 0.0, 0.0, 0.0, 0.0, 0.0, 1.7172379449847305E9, 0.0, 2024-06-01 03:32:24.984
112.0, 187500.0, -38158.78637537794, 187500.0, 187500.0, 187500.0, 187500.0, 187500.0, -93055.74364134594, 0.022, -0.006, 0.978, 192.0, 0.0, 0.0, 0.0, 0.0, 0.0, 0.0, 0.0, 0.0, 0.0, 1.7172379449847438E9, 0.0, 2024-06-01 03:32:24.984
113.0, 187500.0, -38064.61847598773, 187500.0, 187500.0, 187500.0, 187500.0, 187500.0, -92977.37842528564, 0.022, -0.006, 0.978, 192.0, 0.0, 0.0, 0.0, 0.0, 0.0, 0.0, 0.0, 0.0, 0.0, 1.7172379449847577E9, 0.0, 2024-06-01 03:32:24.984
114.0, 187500.0, -38056.12481309471, 187500.0, 187500.0, 187500.0, 187500.0, 187500.0, -93016.47162633797, 0.022, -0.006, 0.978, 192.0, 0.0, 0.0, 0.0, 0.0, 0.0, 0.0, 0.0, 0.0, 0.0, 1.7172379449847713E9, 0.0, 2024-06-01 03:32:24.984
115.0, 187500.0, -38126.041069750914, 187500.0, 187500.0, 187500.0, 187500.0, 187500.0, -93098.01079011093, 0.022, -0.006, 0.978, 192.0, 0.0, 0.0, 0.0, 0.0, 0.0, 0.0, 0.0, 0.0, 0.0, 1.7172379449847841E9, 0.0, 2024-06-01 03:32:24.984
116.0, 187500.0, -38143.16250600368, 187500.0, 187500.0, 187500.0, 187500.0, 187500.0, -93066.3160164733, 0.022, -0.006, 0.978, 192.0, 0.0, 0.0, 0.0, 0.0, 0.0, 0.0, 0.0, 0.0, 0.0, 1.7172379449847972E9, 0.0, 2024-06-01 03:32:24.984
117.0, 187500.0, -38056.773013683916, 187500.0, 187500.0, 187500.0, 187500.0, 187500.0, -92952.99267208489, 0.018000000000000002, -0.002, 0.984, 192.0, 0.0, 144.0, 255.0, 240.0, 30.0, 192.0, 0.0, 0.0, 0.0, 1.7172379449848104E9, 0.0, 2024-06-01 03:32:24.984
118.0, 187500.0, -38018.95386206554, 187500.0, 187500.0, 187500.0, 187500.0, 187500.0, -92951.78567788431, 0.018000000000000002, -0.002, 0.984, 192.0, 0.0, 0.0, 0.0, 0.0, 0.0, 0.0, 0.0, 0.0, 0.0, 1.717237944984824E9, 0.0, 2024-06-01 03:32:24.984
119.0, 187500.0, -38093.16165365716, 187500.0, 187500.0, 187500.0, 187500.0, 187500.0, -93046.86999879718, 0.018000000000000002, -0.002, 0.984, 192.0, 0.0, 0.0, 0.0, 0.0, 0.0, 0.0, 0.0, 0.0, 0.0, 1.7172379449848373E9, 0.0, 2024-06-01 03:32:24.984
120.0, 187500.0, -38128.36565117427, 187500.0, 187500.0, 187500.0, 187500.0, 187500.0, -93058.15762974712, 0.018000000000000002, -0.002, 0.984, 192.0, 0.0, 0.0, 0.0, 0.0, 0.0, 0.0, 0.0, 0.0, 0.0, 1.7172379449848506E9, 0.0, 2024-06-01 03:32:24.984
121.0, 187500.0, -38052.25796130395, 187500.0, 187500.0, 187500.0, 187500.0, 187500.0, -92974.38329152862, 0.018000000000000002, -0.002, 0.984, 192.0, 0.0, 0.0, 0.0, 0.0, 0.0, 0.0, 0.0, 0.0, 0.0, 1.717237945029462E9, 0.0, 2024-06-01 03:32:25.029
122.0, 187500.0, -38014.10353351874, 187500.0, 187500.0, 187500.0, 187500.0, 187500.0, -92966.76134666936, 0.018000000000000002, -0.002, 0.984, 192.0, 0.0, 0.0, 0.0, 0.0, 0.0, 0.0, 0.0, 0.0, 0.0, 1.7172379450295048E9, 0.0, 2024-06-01 03:32:25.029
123.0, 187500.0, -38058.09176660678, 187500.0, 187500.0, 187500.0, 187500.0, 187500.0, -93039.44921963802, 0.018000000000000002, -0.002, 0.984, 192.0, 0.0, 0.0, 0.0, 0.0, 0.0, 0.0, 0.0, 0.0, 0.0, 1.7172379450295212E9, 0.0, 2024-06-01 03:32:25.029
124.0, 187500.0, -38104.516339840455, 187500.0, 187500.0, 187500.0, 187500.0, 187500.0, -93063.96908330549, 0.018000000000000002, -0.002, 0.984, 192.0, 0.0, 0.0, 0.0, 0.0, 0.0, 0.0, 0.0, 0.0, 0.0, 1.7172379450295362E9, 0.0, 2024-06-01 03:32:25.029
125.0, 187500.0, -38045.664196689635, 187500.0, 187500.0, 187500.0, 187500.0, 187500.0, -92966.98486411391, 0.018000000000000002, -0.002, 0.984, 192.0, 0.0, 0.0, 0.0, 0.0, 0.0, 0.0, 0.0, 0.0, 0.0, 1.7172379450295796E9, 0.0, 2024-06-01 03:32:25.029
126.0, 187500.0, -37967.790719007346, 187500.0, 187500.0, 187500.0, 187500.0, 187500.0, -92915.30763093325, 0.018000000000000002, -0.002, 0.984, 192.0, 0.0, 0.0, 0.0, 0.0, 0.0, 0.0, 0.0, 0.0, 0.0, 1.7172379450295944E9, 0.0, 2024-06-01 03:32:25.029
127.0, 187500.0, -38010.32608870579, 187500.0, 187500.0, 187500.0, 187500.0, 187500.0, -92989.20249810249, 0.016, -0.004, 0.98, 192.0, 0.0, 128.0, 255.0, 224.0, 30.0, 160.0, 0.0, 0.0, 0.0, 1.717237945029608E9, 0.0, 2024-06-01 03:32:25.029
128.0, 187500.0, -38082.09754015178, 187500.0, 187500.0, 187500.0, 187500.0, 187500.0, -93019.62322230617, 0.016, -0.004, 0.98, 192.0, 0.0, 0.0, 0.0, 0.0, 0.0, 0.0, 0.0, 0.0, 0.0, 1.7172379450296228E9, 0.0, 2024-06-01 03:32:25.029
129.0, 187500.0, -38025.70408889104, 187500.0, 187500.0, 187500.0, 187500.0, 187500.0, -92939.1345905226, 0.016, -0.004, 0.98, 192.0, 0.0, 0.0, 0.0, 0.0, 0.0, 0.0, 0.0, 0.0, 0.0, 1.7172379454950578E9, 0.0, 2024-06-01 03:32:25.495
130.0, 187500.0, -37936.8559046812, 187500.0, 187500.0, 187500.0, 187500.0, 187500.0, -92874.49334555786, 0.016, -0.004, 0.98, 192.0, 0.0, 0.0, 0.0, 0.0, 0.0, 0.0, 0.0, 0.0, 0.0, 1.7172379454951096E9, 0.0, 2024-06-01 03:32:25.495
131.0, 187500.0, -37962.3592451047, 187500.0, 187500.0, 187500.0, 187500.0, 187500.0, -92930.21624448494, 0.016, -0.004, 0.98, 192.0, 0.0, 0.0, 0.0, 0.0, 0.0, 0.0, 0.0, 0.0, 0.0, 1.7172379454951427E9, 0.0, 2024-06-01 03:32:25.495
132.0, 187500.0, -38028.945091837064, 187500.0, 187500.0, 187500.0, 187500.0, 187500.0, -92993.62814350464, 0.016, -0.004, 0.98, 192.0, 0.0, 0.0, 0.0, 0.0, 0.0, 0.0, 0.0, 0.0, 0.0, 1.717237945495172E9, 0.0, 2024-06-01 03:32:25.495
133.0, 187500.0, -37999.39608566715, 187500.0, 187500.0, 187500.0, 187500.0, 187500.0, -92937.6370236441, 0.016, -0.004, 0.98, 192.0, 0.0, 0.0, 0.0, 0.0, 0.0, 0.0, 0.0, 0.0, 0.0, 1.7172379454952016E9, 0.0, 2024-06-01 03:32:25.495
134.0, 187500.0, -37923.22134056346, 187500.0, 187500.0, 187500.0, 187500.0, 187500.0, -92866.0220344093, 0.016, -0.004, 0.98, 192.0, 0.0, 0.0, 0.0, 0.0, 0.0, 0.0, 0.0, 0.0, 0.0, 1.717237945495231E9, 0.0, 2024-06-01 03:32:25.495
135.0, 187500.0, -37934.643081980124, 187500.0, 187500.0, 187500.0, 187500.0, 187500.0, -92906.79161629577, 0.016, -0.004, 0.98, 192.0, 0.0, 0.0, 0.0, 0.0, 0.0, 0.0, 0.0, 0.0, 0.0, 1.7172379454952605E9, 0.0, 2024-06-01 03:32:25.495
136.0, 187500.0, -38003.19588222455, 187500.0, 187500.0, 187500.0, 187500.0, 187500.0, -92971.81284091626, 0.016, -0.004, 0.98, 192.0, 0.0, 0.0, 0.0, 0.0, 0.0, 0.0, 0.0, 0.0, 0.0, 1.71723794549529E9, 0.0, 2024-06-01 03:32:25.495
137.0, 187500.0, -38003.933489791576, 187500.0, 187500.0, 187500.0, 187500.0, 187500.0, -92928.09282876168, 0.018000000000000002, -0.004, 0.98, 192.0, 0.0, 144.0, 255.0, 224.0, 30.0, 160.0, 0.0, 0.0, 0.0, 1.7172379454953072E9, 0.0, 2024-06-01 03:32:25.495
138.0, 187500.0, -37907.46336072247, 187500.0, 187500.0, 187500.0, 187500.0, 187500.0, -92834.32726077166, 0.018000000000000002, -0.004, 0.98, 192.0, 0.0, 0.0, 0.0, 0.0, 0.0, 0.0, 0.0, 0.0, 0.0, 1.7172379454953253E9, 0.0, 2024-06-01 03:32:25.495
139.0, 187500.0, -37896.8462821062, 187500.0, 187500.0, 187500.0, 187500.0, 187500.0, -92862.24458959635, 0.018000000000000002, -0.004, 0.98, 192.0, 0.0, 0.0, 0.0, 0.0, 0.0, 0.0, 0.0, 0.0, 0.0, 1.7172379454953423E9, 0.0, 2024-06-01 03:32:25.495
140.0, 187500.0, -37970.5623353198, 187500.0, 187500.0, 187500.0, 187500.0, 187500.0, -92936.36297421015, 0.018000000000000002, -0.004, 0.98, 192.0, 0.0, 0.0, 0.0, 0.0, 0.0, 0.0, 0.0, 0.0, 0.0, 1.7172379454953966E9, 0.0, 2024-06-01 03:32:25.495
141.0, 187500.0, -37987.214384939005, 187500.0, 187500.0, 187500.0, 187500.0, 187500.0, -92918.48157864591, 0.018000000000000002, -0.004, 0.98, 192.0, 0.0, 0.0, 0.0, 0.0, 0.0, 0.0, 0.0, 0.0, 0.0, 1.717237945495414E9, 0.0, 2024-06-01 03:32:25.495
142.0, 187500.0, -37906.658697922074, 187500.0, 187500.0, 187500.0, 187500.0, 187500.0, -92837.09887708412, 0.018000000000000002, -0.004, 0.98, 192.0, 0.0, 0.0, 0.0, 0.0, 0.0, 0.0, 0.0, 0.0, 0.0, 1.7172379454954307E9, 0.0, 2024-06-01 03:32:25.495
143.0, 187500.0, -37872.92991553902, 187500.0, 187500.0, 187500.0, 187500.0, 187500.0, -92828.98519384685, 0.018000000000000002, -0.004, 0.98, 192.0, 0.0, 0.0, 0.0, 0.0, 0.0, 0.0, 0.0, 0.0, 0.0, 1.7172379454954474E9, 0.0, 2024-06-01 03:32:25.495
144.0, 187500.0, -37946.735375730445, 187500.0, 187500.0, 187500.0, 187500.0, 187500.0, -92902.36597089362, 0.018000000000000002, -0.004, 0.98, 192.0, 0.0, 0.0, 0.0, 0.0, 0.0, 0.0, 0.0, 0.0, 0.0, 1.717237945495464E9, 0.0, 2024-06-01 03:32:25.495
145.0, 187500.0, -37981.64880056963, 187500.0, 187500.0, 187500.0, 187500.0, 187500.0, -92909.60793609715, 0.018000000000000002, -0.004, 0.98, 192.0, 0.0, 0.0, 0.0, 0.0, 0.0, 0.0, 0.0, 0.0, 0.0, 1.7172379454954808E9, 0.0, 2024-06-01 03:32:25.495
146.0, 187500.0, -37900.377857730135, 187500.0, 187500.0, 187500.0, 187500.0, 187500.0, -92826.16887404548, 0.018000000000000002, -0.004, 0.98, 192.0, 0.0, 0.0, 0.0, 0.0, 0.0, 0.0, 0.0, 0.0, 0.0, 1.7172379454954975E9, 0.0, 2024-06-01 03:32:25.495
147.0, 187500.0, -37855.5849618417, 187500.0, 187500.0, 187500.0, 187500.0, 187500.0, -92808.37688545906, 0.02, -0.004, 0.976, 192.0, 0.0, 160.0, 255.0, 224.0, 30.0, 128.0, 0.0, 0.0, 0.0, 1.717237945495514E9, 0.0, 2024-06-01 03:32:25.495
148.0, 187500.0, -37912.17957880254, 187500.0, 187500.0, 187500.0, 187500.0, 187500.0, -92876.30383685873, 0.02, -0.004, 0.976, 192.0, 0.0, 0.0, 0.0, 0.0, 0.0, 0.0, 0.0, 0.0, 0.0, 1.7172379454955316E9, 0.0, 2024-06-01 03:32:25.495
149.0, 187500.0, -37962.13572766015, 187500.0, 187500.0, 187500.0, 187500.0, 187500.0, -92896.80038652425, 0.02, -0.004, 0.976, 192.0, 0.0, 0.0, 0.0, 0.0, 0.0, 0.0, 0.0, 0.0, 0.0, 1.7172379454955485E9, 0.0, 2024-06-01 03:32:25.495
150.0, 187500.0, -37905.85403512169, 187500.0, 187500.0, 187500.0, 187500.0, 187500.0, -92817.89872859702, 0.02, -0.004, 0.976, 192.0, 0.0, 0.0, 0.0, 0.0, 0.0, 0.0, 0.0, 0.0, 0.0, 1.7172379454955652E9, 0.0, 2024-06-01 03:32:25.495
151.0, 187500.0, -37841.83863900169, 187500.0, 187500.0, 187500.0, 187500.0, 187500.0, -92791.63542886204, 0.02, -0.004, 0.976, 192.0, 0.0, 0.0, 0.0, 0.0, 0.0, 0.0, 0.0, 0.0, 0.0, 1.7172379454955819E9, 0.0, 2024-06-01 03:32:25.495
152.0, 187500.0, -37890.23016574742, 187500.0, 187500.0, 187500.0, 187500.0, 187500.0, -92875.00743568032, 0.02, -0.004, 0.976, 192.0, 0.0, 0.0, 0.0, 0.0, 0.0, 0.0, 0.0, 0.0, 0.0, 1.7172379454955983E9, 0.0, 2024-06-01 03:32:25.495
153.0, 187500.0, -37960.012311936895, 187500.0, 187500.0, 187500.0, 187500.0, 187500.0, -92927.42227642803, 0.02, -0.004, 0.976, 192.0, 0.0, 0.0, 0.0, 0.0, 0.0, 0.0, 0.0, 0.0, 0.0, 1.7172379454956164E9, 0.0, 2024-06-01 03:32:25.495
154.0, 187500.0, -37915.53234047083, 187500.0, 187500.0, 187500.0, 187500.0, 187500.0, -92851.78397319127, 0.02, -0.004, 0.976, 192.0, 0.0, 0.0, 0.0, 0.0, 0.0, 0.0, 0.0, 0.0, 0.0, 1.7172379454956336E9, 0.0, 2024-06-01 03:32:25.495
155.0, 187500.0, -37844.54320008078, 187500.0, 187500.0, 187500.0, 187500.0, 187500.0, -92797.69275160941, 0.02, -0.004, 0.976, 192.0, 0.0, 0.0, 0.0, 0.0, 0.0, 0.0, 0.0, 0.0, 0.0, 1.717237945495662E9, 0.0, 2024-06-01 03:32:25.495
156.0, 187500.0, -37879.63543887561, 187500.0, 187500.0, 187500.0, 187500.0, 187500.0, -92856.83546743817, 0.02, -0.004, 0.976, 192.0, 0.0, 0.0, 0.0, 0.0, 0.0, 0.0, 0.0, 0.0, 0.0, 1.7172379454956796E9, 0.0, 2024-06-01 03:32:25.495
157.0, 187500.0, -37953.79852697832, 187500.0, 187500.0, 187500.0, 187500.0, 187500.0, -92911.30666867575, 0.018000000000000002, -0.002, 0.976, 192.0, 0.0, 144.0, 255.0, 240.0, 30.0, 128.0, 0.0, 0.0, 0.0, 1.7172379454956963E9, 0.0, 2024-06-01 03:32:25.495
158.0, 187500.0, -37938.197009348514, 187500.0, 187500.0, 187500.0, 187500.0, 187500.0, -92862.98219716338, 0.018000000000000002, -0.002, 0.976, 192.0, 0.0, 0.0, 0.0, 0.0, 0.0, 0.0, 0.0, 0.0, 0.0, 1.7172379454957137E9, 0.0, 2024-06-01 03:32:25.495
159.0, 187500.0, -37842.151563424064, 187500.0, 187500.0, 187500.0, 187500.0, 187500.0, -92774.55869609817, 0.018000000000000002, -0.002, 0.976, 192.0, 0.0, 0.0, 0.0, 0.0, 0.0, 0.0, 0.0, 0.0, 0.0, 1.7172379454957304E9, 0.0, 2024-06-01 03:32:25.495
160.0, 187500.0, -37840.34107212318, 187500.0, 187500.0, 187500.0, 187500.0, 187500.0, -92805.47115867987, 0.018000000000000002, -0.002, 0.976, 192.0, 0.0, 0.0, 0.0, 0.0, 0.0, 0.0, 0.0, 0.0, 0.0, 1.7172379454957473E9, 0.0, 2024-06-01 03:32:25.495
161.0, 187500.0, -37919.71211668398, 187500.0, 187500.0, 187500.0, 187500.0, 187500.0, -92882.96465670642, 0.018000000000000002, -0.002, 0.976, 192.0, 0.0, 0.0, 0.0, 0.0, 0.0, 0.0, 0.0, 0.0, 0.0, 1.717237945495764E9, 0.0, 2024-06-01 03:32:25.495
162.0, 187500.0, -37915.17471255955, 187500.0, 187500.0, 187500.0, 187500.0, 187500.0, -92857.72953721638, 0.018000000000000002, -0.002, 0.976, 192.0, 0.0, 0.0, 0.0, 0.0, 0.0, 0.0, 0.0, 0.0, 0.0, 1.7172379454957807E9, 0.0, 2024-06-01 03:32:25.495
163.0, 187500.0, -37824.672499260014, 187500.0, 187500.0, 187500.0, 187500.0, 187500.0, -92756.140858667, 0.018000000000000002, -0.002, 0.976, 192.0, 0.0, 0.0, 0.0, 0.0, 0.0, 0.0, 0.0, 0.0, 0.0, 1.7172379454957972E9, 0.0, 2024-06-01 03:32:25.495
164.0, 187500.0, -37813.94366192146, 187500.0, 187500.0, 187500.0, 187500.0, 187500.0, -92773.3517018976, 0.018000000000000002, -0.002, 0.976, 192.0, 0.0, 0.0, 0.0, 0.0, 0.0, 0.0, 0.0, 0.0, 0.0, 1.7172379454958143E9, 0.0, 2024-06-01 03:32:25.495
165.0, 187500.0, -37903.12712229814, 187500.0, 187500.0, 187500.0, 187500.0, 187500.0, -92878.74017700437, 0.018000000000000002, -0.002, 0.976, 192.0, 0.0, 0.0, 0.0, 0.0, 0.0, 0.0, 0.0, 0.0, 0.0, 1.717237945495831E9, 0.0, 2024-06-01 03:32:25.495
166.0, 187500.0, -37930.999747633905, 187500.0, 187500.0, 187500.0, 187500.0, 187500.0, -92877.51083105932, 0.018000000000000002, -0.002, 0.976, 192.0, 0.0, 0.0, 0.0, 0.0, 0.0, 0.0, 0.0, 0.0, 0.0, 1.7172379454958482E9, 0.0, 2024-06-01 03:32:25.495
167.0, 187500.0, -37837.949435466464, 187500.0, 187500.0, 187500.0, 187500.0, 187500.0, -92785.42164390346, 0.026000000000000002, -0.004, 0.988, 192.0, 0.0, 208.0, 255.0, 224.0, 30.0, 224.0, 0.0, 0.0, 0.0, 1.7172379454958649E9, 0.0, 2024-06-01 03:32:25.495
168.0, 187500.0, -37807.21578684042, 187500.0, 187500.0, 187500.0, 187500.0, 187500.0, -92788.59559161612, 0.026000000000000002, -0.004, 0.988, 192.0, 0.0, 0.0, 0.0, 0.0, 0.0, 0.0, 0.0, 0.0, 0.0, 1.717237945495882E9, 0.0, 2024-06-01 03:32:25.495
169.0, 187500.0, -37892.71120938197, 187500.0, 187500.0, 187500.0, 187500.0, 187500.0, -92859.02593839479, 0.026000000000000002, -0.004, 0.988, 192.0, 0.0, 0.0, 0.0, 0.0, 0.0, 0.0, 0.0, 0.0, 0.0, 1.7172379454958987E9, 0.0, 2024-06-01 03:32:25.495
170.0, 187500.0, -37932.050279623305, 187500.0, 187500.0, 187500.0, 187500.0, 187500.0, -92857.26015058282, 0.026000000000000002, -0.004, 0.988, 192.0, 0.0, 0.0, 0.0, 0.0, 0.0, 0.0, 0.0, 0.0, 0.0, 1.7172379454959297E9, 0.0, 2024-06-01 03:32:25.495
171.0, 187500.0, -37846.37604312611, 187500.0, 187500.0, 187500.0, 187500.0, 187500.0, -92776.14566995451, 0.026000000000000002, -0.004, 0.988, 192.0, 0.0, 0.0, 0.0, 0.0, 0.0, 0.0, 0.0, 0.0, 0.0, 1.7172379454959567E9, 0.0, 2024-06-01 03:32:25.495
172.0, 187500.0, -37806.05349612874, 187500.0, 187500.0, 187500.0, 187500.0, 187500.0, -92770.17775418494, 0.026000000000000002, -0.004, 0.988, 192.0, 0.0, 0.0, 0.0, 0.0, 0.0, 0.0, 0.0, 0.0, 0.0, 1.7172379454959831E9, 0.0, 2024-06-01 03:32:25.495
173.0, 187500.0, -37866.15733696906, 187500.0, 187500.0, 187500.0, 187500.0, 187500.0, -92852.99096739184, 0.026000000000000002, -0.004, 0.988, 192.0, 0.0, 0.0, 0.0, 0.0, 0.0, 0.0, 0.0, 0.0, 0.0, 1.717237945496008E9, 0.0, 2024-06-01 03:32:25.496
174.0, 187500.0, -37918.482770738934, 187500.0, 187500.0, 187500.0, 187500.0, 187500.0, -92883.36698810662, 0.026000000000000002, -0.004, 0.988, 192.0, 0.0, 0.0, 0.0, 0.0, 0.0, 0.0, 0.0, 0.0, 0.0, 1.7172379454960253E9, 0.0, 2024-06-01 03:32:25.496
175.0, 187500.0, -37861.21760144444, 187500.0, 187500.0, 187500.0, 187500.0, 187500.0, -92795.9493155419, 0.026000000000000002, -0.004, 0.988, 192.0, 0.0, 0.0, 0.0, 0.0, 0.0, 0.0, 0.0, 0.0, 0.0, 1.7172379454960425E9, 0.0, 2024-06-01 03:32:25.496
176.0, 187500.0, -37795.86110065712, 187500.0, 187500.0, 187500.0, 187500.0, 187500.0, -92753.72687026583, 0.02, -0.008, 0.982, 192.0, 0.0, 160.0, 255.0, 192.0, 30.0, 176.0, 0.0, 0.0, 0.0, 1.7172379454960594E9, 0.0, 2024-06-01 03:32:25.496
177.0, 187500.0, -37843.7832407693, 187500.0, 187500.0, 187500.0, 187500.0, 187500.0, -92821.6091181766, 0.02, -0.008, 0.982, 192.0, 0.0, 0.0, 0.0, 0.0, 0.0, 0.0, 0.0, 0.0, 0.0, 1.7172379454960768E9, 0.0, 2024-06-01 03:32:25.496
178.0, 187500.0, -37920.11444808417, 187500.0, 187500.0, 187500.0, 187500.0, 187500.0, -92880.3718543496, 0.02, -0.008, 0.982, 192.0, 0.0, 0.0, 0.0, 0.0, 0.0, 0.0, 0.0, 0.0, 0.0, 1.7172379454960935E9, 0.0, 2024-06-01 03:32:25.496
179.0, 187500.0, -37869.95713352646, 187500.0, 187500.0, 187500.0, 187500.0, 187500.0, -92806.54404241372, 0.02, -0.008, 0.982, 192.0, 0.0, 0.0, 0.0, 0.0, 0.0, 0.0, 0.0, 0.0, 0.0, 1.7172379454961095E9, 0.0, 2024-06-01 03:32:25.496
180.0, 187500.0, -37791.01077211032, 187500.0, 187500.0, 187500.0, 187500.0, 187500.0, -92741.41105907096, 0.02, -0.008, 0.982, 192.0, 0.0, 0.0, 0.0, 0.0, 0.0, 0.0, 0.0, 0.0, 0.0, 1.7172379454961236E9, 0.0, 2024-06-01 03:32:25.496
181.0, 187500.0, -37830.43924932948, 187500.0, 187500.0, 187500.0, 187500.0, 187500.0, -92813.49543493932, 0.02, -0.008, 0.982, 192.0, 0.0, 0.0, 0.0, 0.0, 0.0, 0.0, 0.0, 0.0, 0.0, 1.717237945496137E9, 0.0, 2024-06-01 03:32:25.496
182.0, 187500.0, -37906.97162234445, 187500.0, 187500.0, 187500.0, 187500.0, 187500.0, -92889.24549689837, 0.02, -0.008, 0.982, 192.0, 0.0, 0.0, 0.0, 0.0, 0.0, 0.0, 0.0, 0.0, 0.0, 1.7172379454961507E9, 0.0, 2024-06-01 03:32:25.496
183.0, 187500.0, -37884.06108427776, 187500.0, 187500.0, 187500.0, 187500.0, 187500.0, -92827.88995836854, 0.02, -0.008, 0.982, 192.0, 0.0, 0.0, 0.0, 0.0, 0.0, 0.0, 0.0, 0.0, 0.0, 1.7172379454961643E9, 0.0, 2024-06-01 03:32:25.496
184.0, 187500.0, -37801.06905711521, 187500.0, 187500.0, 187500.0, 187500.0, 187500.0, -92735.71136423486, 0.02, -0.008, 0.982, 192.0, 0.0, 0.0, 0.0, 0.0, 0.0, 0.0, 0.0, 0.0, 0.0, 1.7172379454961777E9, 0.0, 2024-06-01 03:32:25.496
185.0, 187500.0, -37814.10012413265, 187500.0, 187500.0, 187500.0, 187500.0, 187500.0, -92783.11941422457, 0.02, -0.008, 0.982, 192.0, 0.0, 0.0, 0.0, 0.0, 0.0, 0.0, 0.0, 0.0, 0.0, 1.7172379454962015E9, 0.0, 2024-06-01 03:32:25.496
186.0, 187500.0, -37895.05814254977, 187500.0, 187500.0, 187500.0, 187500.0, 187500.0, -92869.68772049996, 0.018000000000000002, -0.008, 0.98, 192.0, 0.0, 144.0, 255.0, 192.0, 30.0, 160.0, 0.0, 0.0, 0.0, 1.717237945496215E9, 0.0, 2024-06-01 03:32:25.496
187.0, 187500.0, -37892.197119259494, 187500.0, 187500.0, 187500.0, 187500.0, 187500.0, -92841.74803993083, 0.018000000000000002, -0.008, 0.98, 192.0, 0.0, 0.0, 0.0, 0.0, 0.0, 0.0, 0.0, 0.0, 0.0, 1.7172379454962292E9, 0.0, 2024-06-01 03:32:25.496
188.0, 187500.0, -37808.243967085364, 187500.0, 187500.0, 187500.0, 187500.0, 187500.0, -92752.31871036514, 0.018000000000000002, -0.008, 0.98, 192.0, 0.0, 0.0, 0.0, 0.0, 0.0, 0.0, 0.0, 0.0, 0.0, 1.7172379454962428E9, 0.0, 2024-06-01 03:32:25.496
189.0, 187500.0, -37815.84356020016, 187500.0, 187500.0, 187500.0, 187500.0, 187500.0, -92788.61794336057, 0.018000000000000002, -0.008, 0.98, 192.0, 0.0, 0.0, 0.0, 0.0, 0.0, 0.0, 0.0, 0.0, 0.0, 1.717237945496256E9, 0.0, 2024-06-01 03:32:25.496
190.0, 187500.0, -37886.11744476765, 187500.0, 187500.0, 187500.0, 187500.0, 187500.0, -92872.3252263457, 0.018000000000000002, -0.008, 0.98, 192.0, 0.0, 0.0, 0.0, 0.0, 0.0, 0.0, 0.0, 0.0, 0.0, 1.7172379454962692E9, 0.0, 2024-06-01 03:32:25.496
191.0, 187500.0, -37898.81323561826, 187500.0, 187500.0, 187500.0, 187500.0, 187500.0, -92856.09785987114, 0.018000000000000002, -0.008, 0.98, 192.0, 0.0, 0.0, 0.0, 0.0, 0.0, 0.0, 0.0, 0.0, 0.0, 1.7172379454962828E9, 0.0, 2024-06-01 03:32:25.496
192.0, 187500.0, -37811.462618286925, 187500.0, 187500.0, 187500.0, 187500.0, 187500.0, -92758.91247497946, 0.018000000000000002, -0.008, 0.98, 192.0, 0.0, 0.0, 0.0, 0.0, 0.0, 0.0, 0.0, 0.0, 0.0, 1.7172379454962964E9, 0.0, 2024-06-01 03:32:25.496
193.0, 187500.0, -37781.42187373899, 187500.0, 187500.0, 187500.0, 187500.0, 187500.0, -92747.69189926289, 0.018000000000000002, -0.008, 0.98, 192.0, 0.0, 0.0, 0.0, 0.0, 0.0, 0.0, 0.0, 0.0, 0.0, 1.7172379454963098E9, 0.0, 2024-06-01 03:32:25.496
194.0, 187500.0, -37852.34395889568, 187500.0, 187500.0, 187500.0, 187500.0, 187500.0, -92829.76750490279, 0.018000000000000002, -0.008, 0.98, 192.0, 0.0, 0.0, 0.0, 0.0, 0.0, 0.0, 0.0, 0.0, 0.0, 1.717237945496323E9, 0.0, 2024-06-01 03:32:25.496
195.0, 187500.0, -37897.18155827303, 187500.0, 187500.0, 187500.0, 187500.0, 187500.0, -92843.24560680933, 0.018000000000000002, -0.008, 0.98, 192.0, 0.0, 0.0, 0.0, 0.0, 0.0, 0.0, 0.0, 0.0, 0.0, 1.7172379454963365E9, 0.0, 2024-06-01 03:32:25.496
196.0, 187500.0, -37823.15258063705, 187500.0, 187500.0, 187500.0, 187500.0, 187500.0, -92759.91830347995, 0.026000000000000002, -0.004, 0.986, 192.0, 0.0, 208.0, 255.0, 224.0, 30.0, 208.0, 0.0, 0.0, 0.0, 1.71723794549635E9, 0.0, 2024-06-01 03:32:25.496
197.0, 187500.0, -37771.14007128955, 187500.0, 187500.0, 187500.0, 187500.0, 187500.0, -92729.27406183173, 0.026000000000000002, -0.004, 0.986, 192.0, 0.0, 0.0, 0.0, 0.0, 0.0, 0.0, 0.0, 0.0, 0.0, 1.7172379454963639E9, 0.0, 2024-06-01 03:32:25.496
198.0, 187500.0, -37835.937778465486, 187500.0, 187500.0, 187500.0, 187500.0, 187500.0, -92800.12909175505, 0.026000000000000002, -0.004, 0.986, 192.0, 0.0, 0.0, 0.0, 0.0, 0.0, 0.0, 0.0, 0.0, 0.0, 1.7172379454963772E9, 0.0, 2024-06-01 03:32:25.496
199.0, 187500.0, -37898.23209026243, 187500.0, 187500.0, 187500.0, 187500.0, 187500.0, -92842.0162608643, 0.026000000000000002, -0.004, 0.986, 192.0, 0.0, 0.0, 0.0, 0.0, 0.0, 0.0, 0.0, 0.0, 0.0, 1.7172379454963903E9, 0.0, 2024-06-01 03:32:25.496
200.0, 187500.0, -37837.07771743271, 187500.0, 187500.0, 187500.0, 187500.0, 187500.0, -92761.37116686955, 0.026000000000000002, -0.004, 0.986, 192.0, 0.0, 0.0, 0.0, 0.0, 0.0, 0.0, 0.0, 0.0, 0.0, 1.7172379454964116E9, 0.0, 2024-06-01 03:32:25.496
201.0, 187500.0, -37763.33931247465, 187500.0, 187500.0, 187500.0, 187500.0, 187500.0, -92702.69783767436, 0.026000000000000002, -0.004, 0.986, 192.0, 0.0, 0.0, 0.0, 0.0, 0.0, 0.0, 0.0, 0.0, 0.0, 1.717237945496425E9, 0.0, 2024-06-01 03:32:25.496
202.0, 187500.0, -37809.24979558585, 187500.0, 187500.0, 187500.0, 187500.0, 187500.0, -92783.54409736922, 0.026000000000000002, -0.004, 0.986, 192.0, 0.0, 0.0, 0.0, 0.0, 0.0, 0.0, 0.0, 0.0, 0.0, 1.7172379454964385E9, 0.0, 2024-06-01 03:32:25.496
203.0, 187500.0, -37889.604316902674, 187500.0, 187500.0, 187500.0, 187500.0, 187500.0, -92857.90835117202, 0.026000000000000002, -0.004, 0.986, 192.0, 0.0, 0.0, 0.0, 0.0, 0.0, 0.0, 0.0, 0.0, 0.0, 1.7172379454964516E9, 0.0, 2024-06-01 03:32:25.496
204.0, 187500.0, -37849.974673983415, 187500.0, 187500.0, 187500.0, 187500.0, 187500.0, -92798.13978649853, 0.026000000000000002, -0.004, 0.986, 192.0, 0.0, 0.0, 0.0, 0.0, 0.0, 0.0, 0.0, 0.0, 0.0, 1.7172379454964652E9, 0.0, 2024-06-01 03:32:25.496
205.0, 187500.0, -37774.47048121339, 187500.0, 187500.0, 187500.0, 187500.0, 187500.0, -92724.80371294066, 0.026000000000000002, -0.004, 0.986, 192.0, 0.0, 0.0, 0.0, 0.0, 0.0, 0.0, 0.0, 0.0, 0.0, 1.7172379454964783E9, 0.0, 2024-06-01 03:32:25.496
206.0, 187500.0, -37806.366420551116, 187500.0, 187500.0, 187500.0, 187500.0, 187500.0, -92787.23213520434, 0.024, -0.004, 0.982, 192.0, 0.0, 192.0, 255.0, 224.0, 30.0, 176.0, 0.0, 0.0, 0.0, 1.7172379454964917E9, 0.0, 2024-06-01 03:32:25.496
207.0, 187500.0, -37888.35261921318, 187500.0, 187500.0, 187500.0, 187500.0, 187500.0, -92859.69649072844, 0.024, -0.004, 0.982, 192.0, 0.0, 0.0, 0.0, 0.0, 0.0, 0.0, 0.0, 0.0, 0.0, 1.7172379454965055E9, 0.0, 2024-06-01 03:32:25.496
208.0, 187500.0, -37866.55966836926, 187500.0, 187500.0, 187500.0, 187500.0, 187500.0, -92802.74424585632, 0.024, -0.004, 0.982, 192.0, 0.0, 0.0, 0.0, 0.0, 0.0, 0.0, 0.0, 0.0, 0.0, 1.717237945496519E9, 0.0, 2024-06-01 03:32:25.496
209.0, 187500.0, -37783.52293771779, 187500.0, 187500.0, 187500.0, 187500.0, 187500.0, -92721.8309309281, 0.024, -0.004, 0.982, 192.0, 0.0, 0.0, 0.0, 0.0, 0.0, 0.0, 0.0, 0.0, 0.0, 1.7172379454965324E9, 0.0, 2024-06-01 03:32:25.496
210.0, 187500.0, -37789.40144650954, 187500.0, 187500.0, 187500.0, 187500.0, 187500.0, -92771.4518036189, 0.024, -0.004, 0.982, 192.0, 0.0, 0.0, 0.0, 0.0, 0.0, 0.0, 0.0, 0.0, 0.0, 1.7172379454965456E9, 0.0, 2024-06-01 03:32:25.496
211.0, 187500.0, -37868.79484281479, 187500.0, 187500.0, 187500.0, 187500.0, 187500.0, -92858.0648133832, 0.024, -0.004, 0.982, 192.0, 0.0, 0.0, 0.0, 0.0, 0.0, 0.0, 0.0, 0.0, 0.0, 1.7172379454965594E9, 0.0, 2024-06-01 03:32:25.496
212.0, 187500.0, -37877.44496791899, 187500.0, 187500.0, 187500.0, 187500.0, 187500.0, -92824.8054176337, 0.024, -0.004, 0.982, 192.0, 0.0, 0.0, 0.0, 0.0, 0.0, 0.0, 0.0, 0.0, 0.0, 1.717237945496573E9, 0.0, 2024-06-01 03:32:25.496
213.0, 187500.0, -37794.65410645653, 187500.0, 187500.0, 187500.0, 187500.0, 187500.0, -92739.17588462542, 0.024, -0.004, 0.982, 192.0, 0.0, 0.0, 0.0, 0.0, 0.0, 0.0, 0.0, 0.0, 0.0, 1.7172379454965863E9, 0.0, 2024-06-01 03:32:25.496
214.0, 187500.0, -37784.28289702927, 187500.0, 187500.0, 187500.0, 187500.0, 187500.0, -92773.68697806442, 0.024, -0.004, 0.982, 192.0, 0.0, 0.0, 0.0, 0.0, 0.0, 0.0, 0.0, 0.0, 0.0, 1.7172379454965997E9, 0.0, 2024-06-01 03:32:25.496
215.0, 187500.0, -37863.65394159007, 187500.0, 187500.0, 187500.0, 187500.0, 187500.0, -92849.83937142366, 0.024, -0.004, 0.982, 192.0, 0.0, 0.0, 0.0, 0.0, 0.0, 0.0, 0.0, 0.0, 0.0, 1.7172379454966133E9, 0.0, 2024-06-01 03:32:25.496
216.0, 187500.0, -37889.35844771367, 187500.0, 187500.0, 187500.0, 187500.0, 187500.0, -92837.25533929531, 0.018000000000000002, -0.004, 0.986, 192.0, 0.0, 144.0, 255.0, 224.0, 30.0, 208.0, 0.0, 0.0, 0.0, 1.7172379454966345E9, 0.0, 2024-06-01 03:32:25.496
217.0, 187500.0, -37799.86206291462, 187500.0, 187500.0, 187500.0, 187500.0, 187500.0, -92739.06412590315, 0.018000000000000002, -0.004, 0.986, 192.0, 0.0, 0.0, 0.0, 0.0, 0.0, 0.0, 0.0, 0.0, 0.0, 1.7172379454966483E9, 0.0, 2024-06-01 03:32:25.496
218.0, 187500.0, -37765.77565262028, 187500.0, 187500.0, 187500.0, 187500.0, 187500.0, -92752.20695164287, 0.018000000000000002, -0.004, 0.986, 192.0, 0.0, 0.0, 0.0, 0.0, 0.0, 0.0, 0.0, 0.0, 0.0, 1.717237945496662E9, 0.0, 2024-06-01 03:32:25.496
219.0, 187500.0, -37838.664691289036, 187500.0, 187500.0, 187500.0, 187500.0, 187500.0, -92846.93364464446, 0.018000000000000002, -0.004, 0.986, 192.0, 0.0, 0.0, 0.0, 0.0, 0.0, 0.0, 0.0, 0.0, 0.0, 1.7172379454966753E9, 0.0, 2024-06-01 03:32:25.496
220.0, 187500.0, -37883.77051159984, 187500.0, 187500.0, 187500.0, 187500.0, 187500.0, -92855.82963893768, 0.018000000000000002, -0.004, 0.986, 192.0, 0.0, 0.0, 0.0, 0.0, 0.0, 0.0, 0.0, 0.0, 0.0, 1.7172379454966893E9, 0.0, 2024-06-01 03:32:25.496
221.0, 187500.0, -37808.6239467411, 187500.0, 187500.0, 187500.0, 187500.0, 187500.0, -92754.95621621088, 0.018000000000000002, -0.004, 0.986, 192.0, 0.0, 0.0, 0.0, 0.0, 0.0, 0.0, 0.0, 0.0, 0.0, 1.717237945496703E9, 0.0, 2024-06-01 03:32:25.496
222.0, 187500.0, -37761.685283384955, 187500.0, 187500.0, 187500.0, 187500.0, 187500.0, -92732.9397479224, 0.018000000000000002, -0.004, 0.986, 192.0, 0.0, 0.0, 0.0, 0.0, 0.0, 0.0, 0.0, 0.0, 0.0, 1.717237945496716E9, 0.0, 2024-06-01 03:32:25.496
223.0, 187500.0, -37823.845484715166, 187500.0, 187500.0, 187500.0, 187500.0, 187500.0, -92819.46335070889, 0.018000000000000002, -0.004, 0.986, 192.0, 0.0, 0.0, 0.0, 0.0, 0.0, 0.0, 0.0, 0.0, 0.0, 1.7172379454967296E9, 0.0, 2024-06-01 03:32:25.496
224.0, 187500.0, -37886.78799710131, 187500.0, 187500.0, 187500.0, 187500.0, 187500.0, -92852.87920866958, 0.018000000000000002, -0.004, 0.986, 192.0, 0.0, 0.0, 0.0, 0.0, 0.0, 0.0, 0.0, 0.0, 0.0, 1.7172379454967427E9, 0.0, 2024-06-01 03:32:25.496
225.0, 187500.0, -37826.68415626099, 187500.0, 187500.0, 187500.0, 187500.0, 187500.0, -92776.77151879926, 0.018000000000000002, -0.004, 0.986, 192.0, 0.0, 0.0, 0.0, 0.0, 0.0, 0.0, 0.0, 0.0, 0.0, 1.717237945496756E9, 0.0, 2024-06-01 03:32:25.496
226.0, 187500.0, -37747.491925655835, 187500.0, 187500.0, 187500.0, 187500.0, 187500.0, -92722.45677977285, 0.014, -0.004, 0.982, 192.0, 0.0, 112.0, 255.0, 224.0, 30.0, 176.0, 0.0, 0.0, 0.0, 1.7172379454967697E9, 0.0, 2024-06-01 03:32:25.496
227.0, 187500.0, -37794.542347734256, 187500.0, 187500.0, 187500.0, 187500.0, 187500.0, -92774.42458563145, 0.014, -0.004, 0.982, 192.0, 0.0, 0.0, 0.0, 0.0, 0.0, 0.0, 0.0, 0.0, 0.0, 1.7172379454967833E9, 0.0, 2024-06-01 03:32:25.496
228.0, 187500.0, -37877.44496791899, 187500.0, 187500.0, 187500.0, 187500.0, 187500.0, -92830.90744387, 0.014, -0.004, 0.982, 192.0, 0.0, 0.0, 0.0, 0.0, 0.0, 0.0, 0.0, 0.0, 0.0, 1.7172379454967966E9, 0.0, 2024-06-01 03:32:25.496
229.0, 187500.0, -37835.33428136519, 187500.0, 187500.0, 187500.0, 187500.0, 187500.0, -92776.86092577707, 0.014, -0.004, 0.982, 192.0, 0.0, 0.0, 0.0, 0.0, 0.0, 0.0, 0.0, 0.0, 0.0, 1.71723794549681E9, 0.0, 2024-06-01 03:32:25.496
230.0, 187500.0, -37748.78832683424, 187500.0, 187500.0, 187500.0, 187500.0, 187500.0, -92716.42180876993, 0.014, -0.004, 0.982, 192.0, 0.0, 0.0, 0.0, 0.0, 0.0, 0.0, 0.0, 0.0, 0.0, 1.7172379454968233E9, 0.0, 2024-06-01 03:32:25.496
231.0, 187500.0, -37786.294554030246, 187500.0, 187500.0, 187500.0, 187500.0, 187500.0, -92787.58976311563, 0.014, -0.004, 0.982, 192.0, 0.0, 0.0, 0.0, 0.0, 0.0, 0.0, 0.0, 0.0, 0.0, 1.7172379454968443E9, 0.0, 2024-06-01 03:32:25.496
232.0, 187500.0, -37874.40513067307, 187500.0, 187500.0, 187500.0, 187500.0, 187500.0, -92866.49142104285, 0.014, -0.004, 0.982, 192.0, 0.0, 0.0, 0.0, 0.0, 0.0, 0.0, 0.0, 0.0, 0.0, 1.717237945496858E9, 0.0, 2024-06-01 03:32:25.496
233.0, 187500.0, -37867.85606954766, 187500.0, 187500.0, 187500.0, 187500.0, 187500.0, -92821.63146992105, 0.014, -0.004, 0.982, 192.0, 0.0, 0.0, 0.0, 0.0, 0.0, 0.0, 0.0, 0.0, 0.0, 1.7172379454968712E9, 0.0, 2024-06-01 03:32:25.496
234.0, 187500.0, -37764.412196208505, 187500.0, 187500.0, 187500.0, 187500.0, 187500.0, -92728.75997170925, 0.014, -0.004, 0.982, 192.0, 0.0, 0.0, 0.0, 0.0, 0.0, 0.0, 0.0, 0.0, 0.0, 1.7172379454968846E9, 0.0, 2024-06-01 03:32:25.496
235.0, 187500.0, -37763.71929213039, 187500.0, 187500.0, 187500.0, 187500.0, 187500.0, -92766.10973669407, 0.014, -0.004, 0.982, 192.0, 0.0, 0.0, 0.0, 0.0, 0.0, 0.0, 0.0, 0.0, 0.0, 1.717237945496898E9, 0.0, 2024-06-01 03:32:25.496
236.0, 187500.0, -37857.12723220912, 187500.0, 187500.0, 187500.0, 187500.0, 187500.0, -92852.99096739184, 0.022, -0.002, 0.984, 192.0, 0.0, 176.0, 255.0, 240.0, 30.0, 192.0, 0.0, 0.0, 0.0, 1.7172379454969113E9, 0.0, 2024-06-01 03:32:25.496
237.0, 187500.0, -37862.134022967104, 187500.0, 187500.0, 187500.0, 187500.0, 187500.0, -92822.12320829908, 0.022, -0.002, 0.984, 192.0, 0.0, 0.0, 0.0, 0.0, 0.0, 0.0, 0.0, 0.0, 0.0, 1.7172379454969254E9, 0.0, 2024-06-01 03:32:25.496
238.0, 187500.0, -37767.78730962126, 187500.0, 187500.0, 187500.0, 187500.0, 187500.0, -92733.45383804486, 0.022, -0.002, 0.984, 192.0, 0.0, 0.0, 0.0, 0.0, 0.0, 0.0, 0.0, 0.0, 0.0, 1.7172379454969387E9, 0.0, 2024-06-01 03:32:25.496
239.0, 187500.0, -37749.660044868004, 187500.0, 187500.0, 187500.0, 187500.0, 187500.0, -92751.91637896495, 0.022, -0.002, 0.984, 192.0, 0.0, 0.0, 0.0, 0.0, 0.0, 0.0, 0.0, 0.0, 0.0, 1.7172379454969523E9, 0.0, 2024-06-01 03:32:25.496
240.0, 187500.0, -37834.21669414243, 187500.0, 187500.0, 187500.0, 187500.0, 187500.0, -92843.98321437636, 0.022, -0.002, 0.984, 192.0, 0.0, 0.0, 0.0, 0.0, 0.0, 0.0, 0.0, 0.0, 0.0, 1.7172379454969656E9, 0.0, 2024-06-01 03:32:25.496
241.0, 187500.0, -37869.06306374825, 187500.0, 187500.0, 187500.0, 187500.0, 187500.0, -92839.89284514105, 0.022, -0.002, 0.984, 192.0, 0.0, 0.0, 0.0, 0.0, 0.0, 0.0, 0.0, 0.0, 0.0, 1.717237945496979E9, 0.0, 2024-06-01 03:32:25.496
242.0, 187500.0, -37780.348990005135, 187500.0, 187500.0, 187500.0, 187500.0, 187500.0, -92746.37314634003, 0.022, -0.002, 0.984, 192.0, 0.0, 0.0, 0.0, 0.0, 0.0, 0.0, 0.0, 0.0, 0.0, 1.7172379454969923E9, 0.0, 2024-06-01 03:32:25.496
243.0, 187500.0, -37744.09446049863, 187500.0, 187500.0, 187500.0, 187500.0, 187500.0, -92742.28277710472, 0.022, -0.002, 0.984, 192.0, 0.0, 0.0, 0.0, 0.0, 0.0, 0.0, 0.0, 0.0, 0.0, 1.7172379454970057E9, 0.0, 2024-06-01 03:32:25.497
244.0, 187500.0, -37822.25851085884, 187500.0, 187500.0, 187500.0, 187500.0, 187500.0, -92828.18053104646, 0.022, -0.002, 0.984, 192.0, 0.0, 0.0, 0.0, 0.0, 0.0, 0.0, 0.0, 0.0, 0.0, 1.717237945497019E9, 0.0, 2024-06-01 03:32:25.497
245.0, 187500.0, -37871.63351436061, 187500.0, 187500.0, 187500.0, 187500.0, 187500.0, -92848.11828710059, 0.022, -0.002, 0.984, 192.0, 0.0, 0.0, 0.0, 0.0, 0.0, 0.0, 0.0, 0.0, 0.0, 1.7172379454970324E9, 0.0, 2024-06-01 03:32:25.497
246.0, 187500.0, -37804.35476355014, 187500.0, 187500.0, 187500.0, 187500.0, 187500.0, -92765.26037040477, 0.022, -0.002, 0.98, 192.0, 0.0, 176.0, 255.0, 240.0, 30.0, 160.0, 0.0, 0.0, 0.0, 1.7172379454970536E9, 0.0, 2024-06-01 03:32:25.497
247.0, 187500.0, -37748.676568111965, 187500.0, 187500.0, 187500.0, 187500.0, 187500.0, -92734.01263165625, 0.022, -0.002, 0.98, 192.0, 0.0, 0.0, 0.0, 0.0, 0.0, 0.0, 0.0, 0.0, 0.0, 1.7172379454970677E9, 0.0, 2024-06-01 03:32:25.497
248.0, 187500.0, -37802.656030971535, 187500.0, 187500.0, 187500.0, 187500.0, 187500.0, -92804.93471681295, 0.022, -0.002, 0.98, 192.0, 0.0, 0.0, 0.0, 0.0, 0.0, 0.0, 0.0, 0.0, 0.0, 1.7172379454970813E9, 0.0, 2024-06-01 03:32:25.497
249.0, 187500.0, -37861.41876714453, 187500.0, 187500.0, 187500.0, 187500.0, 187500.0, -92837.45650499541, 0.022, -0.002, 0.98, 192.0, 0.0, 0.0, 0.0, 0.0, 0.0, 0.0, 0.0, 0.0, 0.0, 1.717237945742211E9, 0.0, 2024-06-01 03:32:25.742
250.0, 187500.0, -37806.94756590695, 187500.0, 187500.0, 187500.0, 187500.0, 187500.0, -92774.73751005382, 0.022, -0.002, 0.98, 192.0, 0.0, 0.0, 0.0, 0.0, 0.0, 0.0, 0.0, 0.0, 0.0, 1.7172379457422645E9, 0.0, 2024-06-01 03:32:25.742
251.0, 187500.0, -37748.74362334533, 187500.0, 187500.0, 187500.0, 187500.0, 187500.0, -92736.76189622426, 0.022, -0.002, 0.98, 192.0, 0.0, 0.0, 0.0, 0.0, 0.0, 0.0, 0.0, 0.0, 0.0, 1.717237945742298E9, 0.0, 2024-06-01 03:32:25.742
252.0, 187500.0, -37793.11183608912, 187500.0, 187500.0, 187500.0, 187500.0, 187500.0, -92798.38565568754, 0.022, -0.002, 0.98, 192.0, 0.0, 0.0, 0.0, 0.0, 0.0, 0.0, 0.0, 0.0, 0.0, 1.7172379457423253E9, 0.0, 2024-06-01 03:32:25.742
253.0, 187500.0, -37866.626723602625, 187500.0, 187500.0, 187500.0, 187500.0, 187500.0, -92861.93166517398, 0.022, -0.002, 0.98, 192.0, 0.0, 0.0, 0.0, 0.0, 0.0, 0.0, 0.0, 0.0, 0.0, 1.717237945742343E9, 0.0, 2024-06-01 03:32:25.742
254.0, 187500.0, -37837.882380233095, 187500.0, 187500.0, 187500.0, 187500.0, 187500.0, -92810.38854246003, 0.022, -0.002, 0.98, 192.0, 0.0, 0.0, 0.0, 0.0, 0.0, 0.0, 0.0, 0.0, 0.0, 1.7172379457423608E9, 0.0, 2024-06-01 03:32:25.742
255.0, 187500.0, -37756.723196115876, 187500.0, 187500.0, 187500.0, 187500.0, 187500.0, -92731.84451244409, 0.022, -0.002, 0.98, 192.0, 0.0, 0.0, 0.0, 0.0, 0.0, 0.0, 0.0, 0.0, 0.0, 1.7172379457423785E9, 0.0, 2024-06-01 03:32:25.742
0.0, 187500.0, -37783.81351039571, 187500.0, 187500.0, 187500.0, 187500.0, 187500.0, -92776.59270484361, 0.022, -0.008, 0.98, 192.0, 0.0, 176.0, 255.0, 192.0, 30.0, 160.0, 0.0, 0.0, 0.0, 1.7172379457423952E9, 0.0, 2024-06-01 03:32:25.742
1.0, 187500.0, -37856.30021766427, 187500.0, 187500.0, 187500.0, 187500.0, 187500.0, -92859.74119421735, 0.022, -0.008, 0.98, 192.0, 0.0, 0.0, 0.0, 0.0, 0.0, 0.0, 0.0, 0.0, 0.0, 1.7172379457424128E9, 0.0, 2024-06-01 03:32:25.742
2.0, 187500.0, -37833.07675517521, 187500.0, 187500.0, 187500.0, 187500.0, 187500.0, -92814.41185646199, 0.022, -0.008, 0.98, 192.0, 0.0, 0.0, 0.0, 0.0, 0.0, 0.0, 0.0, 0.0, 0.0, 1.71723794574243E9, 0.0, 2024-06-01 03:32:25.742
3.0, 187500.0, -37745.05558551021, 187500.0, 187500.0, 187500.0, 187500.0, 187500.0, -92726.07776237461, 0.022, -0.008, 0.98, 192.0, 0.0, 0.0, 0.0, 0.0, 0.0, 0.0, 0.0, 0.0, 0.0, 1.7172379457424474E9, 0.0, 2024-06-01 03:32:25.742
4.0, 187500.0, -37740.6075883636, 187500.0, 187500.0, 187500.0, 187500.0, 187500.0, -92751.82697198713, 0.022, -0.008, 0.98, 192.0, 0.0, 0.0, 0.0, 0.0, 0.0, 0.0, 0.0, 0.0, 0.0, 1.7172379457424643E9, 0.0, 2024-06-01 03:32:25.742
5.0, 187500.0, -37826.86297021663, 187500.0, 187500.0, 187500.0, 187500.0, 187500.0, -92839.22229280738, 0.022, -0.008, 0.98, 192.0, 0.0, 0.0, 0.0, 0.0, 0.0, 0.0, 0.0, 0.0, 0.0, 1.717237945742518E9, 0.0, 2024-06-01 03:32:25.742
6.0, 187500.0, -37850.15348793906, 187500.0, 187500.0, 187500.0, 187500.0, 187500.0, -92835.82482765017, 0.022, -0.008, 0.98, 192.0, 0.0, 0.0, 0.0, 0.0, 0.0, 0.0, 0.0, 0.0, 0.0, 1.717237945742535E9, 0.0, 2024-06-01 03:32:25.742
7.0, 187500.0, -37775.69982715843, 187500.0, 187500.0, 187500.0, 187500.0, 187500.0, -92750.59762604209, 0.022, -0.008, 0.98, 192.0, 0.0, 0.0, 0.0, 0.0, 0.0, 0.0, 0.0, 0.0, 0.0, 1.717237945742552E9, 0.0, 2024-06-01 03:32:25.742
8.0, 187500.0, -37745.6590826105, 187500.0, 187500.0, 187500.0, 187500.0, 187500.0, -92745.97081493984, 0.022, -0.008, 0.98, 192.0, 0.0, 0.0, 0.0, 0.0, 0.0, 0.0, 0.0, 0.0, 0.0, 1.7172379457425687E9, 0.0, 2024-06-01 03:32:25.742
9.0, 187500.0, -37813.60838575463, 187500.0, 187500.0, 187500.0, 187500.0, 187500.0, -92824.8054176337, 0.022, -0.008, 0.98, 192.0, 0.0, 0.0, 0.0, 0.0, 0.0, 0.0, 0.0, 0.0, 0.0, 1.717237945742586E9, 0.0, 2024-06-01 03:32:25.742
10.0, 187500.0, -37837.65886278854, 187500.0, 187500.0, 187500.0, 187500.0, 187500.0, -92817.51874894128, 0.018000000000000002, -0.006, 0.982, 192.0, 0.0, 144.0, 255.0, 208.0, 30.0, 176.0, 0.0, 0.0, 0.0, 1.7172379457426028E9, 0.0, 2024-06-01 03:32:25.742
11.0, 187500.0, -37742.35102443112, 187500.0, 187500.0, 187500.0, 187500.0, 187500.0, -92711.25855580076, 0.018000000000000002, -0.006, 0.982, 192.0, 0.0, 0.0, 0.0, 0.0, 0.0, 0.0, 0.0, 0.0, 0.0, 1.7172379457426207E9, 0.0, 2024-06-01 03:32:25.742
12.0, 187500.0, -37704.75539025729, 187500.0, 187500.0, 187500.0, 187500.0, 187500.0, -92696.43934922689, 0.018000000000000002, -0.006, 0.982, 192.0, 0.0, 0.0, 0.0, 0.0, 0.0, 0.0, 0.0, 0.0, 0.0, 1.7172379457426376E9, 0.0, 2024-06-01 03:32:25.742
13.0, 187500.0, -37769.75426313332, 187500.0, 187500.0, 187500.0, 187500.0, 187500.0, -92776.14566995451, 0.018000000000000002, -0.006, 0.982, 192.0, 0.0, 0.0, 0.0, 0.0, 0.0, 0.0, 0.0, 0.0, 0.0, 1.7172379457426543E9, 0.0, 2024-06-01 03:32:25.742
14.0, 187500.0, -37809.33920256367, 187500.0, 187500.0, 187500.0, 187500.0, 187500.0, -92792.01540851778, 0.018000000000000002, -0.006, 0.982, 192.0, 0.0, 0.0, 0.0, 0.0, 0.0, 0.0, 0.0, 0.0, 0.0, 1.7172379457426713E9, 0.0, 2024-06-01 03:32:25.742
15.0, 187500.0, -37741.971044775375, 187500.0, 187500.0, 187500.0, 187500.0, 187500.0, -92710.8338726561, 0.018000000000000002, -0.006, 0.982, 192.0, 0.0, 0.0, 0.0, 0.0, 0.0, 0.0, 0.0, 0.0, 0.0, 1.717237945742688E9, 0.0, 2024-06-01 03:32:25.742
16.0, 187500.0, -37686.248145848294, 187500.0, 187500.0, 187500.0, 187500.0, 187500.0, -92681.10605253054, 0.018000000000000002, -0.006, 0.982, 192.0, 0.0, 0.0, 0.0, 0.0, 0.0, 0.0, 0.0, 0.0, 0.0, 1.7172379457427046E9, 0.0, 2024-06-01 03:32:25.742
17.0, 187500.0, -37735.15376271651, 187500.0, 187500.0, 187500.0, 187500.0, 187500.0, -92756.72200402284, 0.018000000000000002, -0.006, 0.982, 192.0, 0.0, 0.0, 0.0, 0.0, 0.0, 0.0, 0.0, 0.0, 0.0, 1.7172379457427218E9, 0.0, 2024-06-01 03:32:25.742
18.0, 187500.0, -37806.5228827623, 187500.0, 187500.0, 187500.0, 187500.0, 187500.0, -92805.89584182452, 0.018000000000000002, -0.006, 0.982, 192.0, 0.0, 0.0, 0.0, 0.0, 0.0, 0.0, 0.0, 0.0, 0.0, 1.7172379457427385E9, 0.0, 2024-06-01 03:32:25.742
19.0, 187500.0, -37744.58619887665, 187500.0, 187500.0, 187500.0, 187500.0, 187500.0, -92718.52287274873, 0.018000000000000002, -0.006, 0.982, 192.0, 0.0, 0.0, 0.0, 0.0, 0.0, 0.0, 0.0, 0.0, 0.0, 1.7172379457427552E9, 0.0, 2024-06-01 03:32:25.742
20.0, 187500.0, -37670.62427647404, 187500.0, 187500.0, 187500.0, 187500.0, 187500.0, -92657.90494178594, 0.02, -0.004, 0.982, 192.0, 0.0, 160.0, 255.0, 224.0, 30.0, 176.0, 0.0, 0.0, 0.0, 1.7172379457427838E9, 0.0, 2024-06-01 03:32:25.742
21.0, 187500.0, -37724.55903584469, 187500.0, 187500.0, 187500.0, 187500.0, 187500.0, -92739.93584393691, 0.02, -0.004, 0.982, 192.0, 0.0, 0.0, 0.0, 0.0, 0.0, 0.0, 0.0, 0.0, 0.0, 1.7172379457428017E9, 0.0, 2024-06-01 03:32:25.742
22.0, 187500.0, -37802.11958910461, 187500.0, 187500.0, 187500.0, 187500.0, 187500.0, -92804.5547371572, 0.02, -0.004, 0.982, 192.0, 0.0, 0.0, 0.0, 0.0, 0.0, 0.0, 0.0, 0.0, 0.0, 1.7172379457428184E9, 0.0, 2024-06-01 03:32:25.742
23.0, 187500.0, -37771.90003060103, 187500.0, 187500.0, 187500.0, 187500.0, 187500.0, -92743.91445444996, 0.02, -0.004, 0.982, 192.0, 0.0, 0.0, 0.0, 0.0, 0.0, 0.0, 0.0, 0.0, 0.0, 1.7172379457428348E9, 0.0, 2024-06-01 03:32:25.742
24.0, 187500.0, -37685.86816619255, 187500.0, 187500.0, 187500.0, 187500.0, 187500.0, -92671.45009892585, 0.02, -0.004, 0.982, 192.0, 0.0, 0.0, 0.0, 0.0, 0.0, 0.0, 0.0, 0.0, 0.0, 1.7172379457428515E9, 0.0, 2024-06-01 03:32:25.742
25.0, 187500.0, -37711.50561708279, 187500.0, 187500.0, 187500.0, 187500.0, 187500.0, -92722.34502105058, 0.02, -0.004, 0.982, 192.0, 0.0, 0.0, 0.0, 0.0, 0.0, 0.0, 0.0, 0.0, 0.0, 1.717237945742868E9, 0.0, 2024-06-01 03:32:25.742
26.0, 187500.0, -37793.13418783357, 187500.0, 187500.0, 187500.0, 187500.0, 187500.0, -92801.47019642236, 0.02, -0.004, 0.982, 192.0, 0.0, 0.0, 0.0, 0.0, 0.0, 0.0, 0.0, 0.0, 0.0, 1.7172379457428849E9, 0.0, 2024-06-01 03:32:25.742
27.0, 187500.0, -37781.17600454998, 187500.0, 187500.0, 187500.0, 187500.0, 187500.0, -92771.94354199691, 0.02, -0.004, 0.982, 192.0, 0.0, 0.0, 0.0, 0.0, 0.0, 0.0, 0.0, 0.0, 0.0, 1.7172379457429016E9, 0.0, 2024-06-01 03:32:25.742
28.0, 187500.0, -37691.277288350735, 187500.0, 187500.0, 187500.0, 187500.0, 187500.0, -92691.85724161354, 0.02, -0.004, 0.982, 192.0, 0.0, 0.0, 0.0, 0.0, 0.0, 0.0, 0.0, 0.0, 0.0, 1.717237945742918E9, 0.0, 2024-06-01 03:32:25.742
29.0, 187500.0, -37701.67084952246, 187500.0, 187500.0, 187500.0, 187500.0, 187500.0, -92727.9329571644, 0.02, -0.004, 0.982, 192.0, 0.0, 0.0, 0.0, 0.0, 0.0, 0.0, 0.0, 0.0, 0.0, 1.7172379457429347E9, 0.0, 2024-06-01 03:32:25.742
30.0, 187500.0, -37786.495719730345, 187500.0, 187500.0, 187500.0, 187500.0, 187500.0, -92802.56543190067, 0.016, -0.002, 0.978, 192.0, 0.0, 128.0, 255.0, 240.0, 30.0, 144.0, 0.0, 0.0, 0.0, 1.7172379457429514E9, 0.0, 2024-06-01 03:32:25.742
31.0, 187500.0, -37788.57443196469, 187500.0, 187500.0, 187500.0, 187500.0, 187500.0, -92775.56452459867, 0.016, -0.002, 0.978, 192.0, 0.0, 0.0, 0.0, 0.0, 0.0, 0.0, 0.0, 0.0, 0.0, 1.7172379457429686E9, 0.0, 2024-06-01 03:32:25.742
32.0, 187500.0, -37701.424980333446, 187500.0, 187500.0, 187500.0, 187500.0, 187500.0, -92692.95247709185, 0.016, -0.002, 0.978, 192.0, 0.0, 0.0, 0.0, 0.0, 0.0, 0.0, 0.0, 0.0, 0.0, 1.7172379457429852E9, 0.0, 2024-06-01 03:32:25.742
33.0, 187500.0, -37692.327820340135, 187500.0, 187500.0, 187500.0, 187500.0, 187500.0, -92717.09236110358, 0.016, -0.002, 0.978, 192.0, 0.0, 0.0, 0.0, 0.0, 0.0, 0.0, 0.0, 0.0, 0.0, 1.7172379457430017E9, 0.0, 2024-06-01 03:32:25.743
34.0, 187500.0, -37779.67843767148, 187500.0, 187500.0, 187500.0, 187500.0, 187500.0, -92808.48864418133, 0.016, -0.002, 0.978, 192.0, 0.0, 0.0, 0.0, 0.0, 0.0, 0.0, 0.0, 0.0, 0.0, 1.7172379457430184E9, 0.0, 2024-06-01 03:32:25.743
35.0, 187500.0, -37814.83773169968, 187500.0, 187500.0, 187500.0, 187500.0, 187500.0, -92813.85306285061, 0.016, -0.002, 0.978, 192.0, 0.0, 0.0, 0.0, 0.0, 0.0, 0.0, 0.0, 0.0, 0.0, 1.7172379457430463E9, 0.0, 2024-06-01 03:32:25.743
36.0, 187500.0, -37731.21985569237, 187500.0, 187500.0, 187500.0, 187500.0, 187500.0, -92722.61324198404, 0.016, -0.002, 0.978, 192.0, 0.0, 0.0, 0.0, 0.0, 0.0, 0.0, 0.0, 0.0, 0.0, 1.717237945743063E9, 0.0, 2024-06-01 03:32:25.743
37.0, 187500.0, -37696.06056166418, 187500.0, 187500.0, 187500.0, 187500.0, 187500.0, -92710.14096857798, 0.016, -0.002, 0.978, 192.0, 0.0, 0.0, 0.0, 0.0, 0.0, 0.0, 0.0, 0.0, 0.0, 1.7172379457430797E9, 0.0, 2024-06-01 03:32:25.743
38.0, 187500.0, -37764.076920041676, 187500.0, 187500.0, 187500.0, 187500.0, 187500.0, -92784.77344331425, 0.016, -0.002, 0.978, 192.0, 0.0, 0.0, 0.0, 0.0, 0.0, 0.0, 0.0, 0.0, 0.0, 1.7172379457430964E9, 0.0, 2024-06-01 03:32:25.743
39.0, 187500.0, -37819.86687420212, 187500.0, 187500.0, 187500.0, 187500.0, 187500.0, -92813.09310353913, 0.016, -0.002, 0.978, 192.0, 0.0, 0.0, 0.0, 0.0, 0.0, 0.0, 0.0, 0.0, 0.0, 1.7172379457431128E9, 0.0, 2024-06-01 03:32:25.743
40.0, 187500.0, -37741.56871337518, 187500.0, 187500.0, 187500.0, 187500.0, 187500.0, -92721.71917220583, 0.014, 0.0, 0.982, 192.0, 0.0, 112.0, 0.0, 0.0, 30.0, 176.0, 0.0, 0.0, 0.0, 1.7172379457431295E9, 0.0, 2024-06-01 03:32:25.743
41.0, 187500.0, -37675.45225327638, 187500.0, 187500.0, 187500.0, 187500.0, 187500.0, -92692.17016603591, 0.014, 0.0, 0.982, 192.0, 0.0, 0.0, 0.0, 0.0, 0.0, 0.0, 0.0, 0.0, 0.0, 1.7172379457431464E9, 0.0, 2024-06-01 03:32:25.743
42.0, 187500.0, -37732.58331210414, 187500.0, 187500.0, 187500.0, 187500.0, 187500.0, -92762.13112618103, 0.014, 0.0, 0.982, 192.0, 0.0, 0.0, 0.0, 0.0, 0.0, 0.0, 0.0, 0.0, 0.0, 1.717237945743163E9, 0.0, 2024-06-01 03:32:25.743
43.0, 187500.0, -37794.81056866772, 187500.0, 187500.0, 187500.0, 187500.0, 187500.0, -92802.07369352266, 0.014, 0.0, 0.982, 192.0, 0.0, 0.0, 0.0, 0.0, 0.0, 0.0, 0.0, 0.0, 0.0, 1.7172379457431796E9, 0.0, 2024-06-01 03:32:25.743
44.0, 187500.0, -37745.41321342149, 187500.0, 187500.0, 187500.0, 187500.0, 187500.0, -92733.63265200051, 0.014, 0.0, 0.982, 192.0, 0.0, 0.0, 0.0, 0.0, 0.0, 0.0, 0.0, 0.0, 0.0, 1.717237945743196E9, 0.0, 2024-06-01 03:32:25.743
45.0, 187500.0, -37686.963401670866, 187500.0, 187500.0, 187500.0, 187500.0, 187500.0, -92687.29748574465, 0.014, 0.0, 0.982, 192.0, 0.0, 0.0, 0.0, 0.0, 0.0, 0.0, 0.0, 0.0, 0.0, 1.7172379457432127E9, 0.0, 2024-06-01 03:32:25.743
46.0, 187500.0, -37722.34621314362, 187500.0, 187500.0, 187500.0, 187500.0, 187500.0, -92753.12337316554, 0.014, 0.0, 0.982, 192.0, 0.0, 0.0, 0.0, 0.0, 0.0, 0.0, 0.0, 0.0, 0.0, 1.7172379457432292E9, 0.0, 2024-06-01 03:32:25.743
47.0, 187500.0, -37800.46556001491, 187500.0, 187500.0, 187500.0, 187500.0, 187500.0, -92820.22331002037, 0.014, 0.0, 0.982, 192.0, 0.0, 0.0, 0.0, 0.0, 0.0, 0.0, 0.0, 0.0, 0.0, 1.7172379457432456E9, 0.0, 2024-06-01 03:32:25.743
48.0, 187500.0, -37776.83976612565, 187500.0, 187500.0, 187500.0, 187500.0, 187500.0, -92763.6957482929, 0.014, 0.0, 0.982, 192.0, 0.0, 0.0, 0.0, 0.0, 0.0, 0.0, 0.0, 0.0, 0.0, 1.717237945743262E9, 0.0, 2024-06-01 03:32:25.743
49.0, 187500.0, -37692.21606161786, 187500.0, 187500.0, 187500.0, 187500.0, 187500.0, -92689.376197979, 0.014, 0.0, 0.982, 192.0, 0.0, 0.0, 0.0, 0.0, 0.0, 0.0, 0.0, 0.0, 0.0, 1.7172379457432785E9, 0.0, 2024-06-01 03:32:25.743
50.0, 187500.0, -37715.01484096228, 187500.0, 187500.0, 187500.0, 187500.0, 187500.0, -92744.47324806133, 0.02, -0.002, 0.978, 192.0, 0.0, 160.0, 255.0, 240.0, 30.0, 144.0, 0.0, 0.0, 0.0, 1.717237945743295E9, 0.0, 2024-06-01 03:32:25.743
51.0, 187500.0, -37796.084618101675, 187500.0, 187500.0, 187500.0, 187500.0, 187500.0, -92818.27870825276, 0.02, -0.002, 0.978, 192.0, 0.0, 0.0, 0.0, 0.0, 0.0, 0.0, 0.0, 0.0, 0.0, 1.717237945743322E9, 0.0, 2024-06-01 03:32:25.743
52.0, 187500.0, -37789.40144650954, 187500.0, 187500.0, 187500.0, 187500.0, 187500.0, -92777.17385019946, 0.02, -0.002, 0.978, 192.0, 0.0, 0.0, 0.0, 0.0, 0.0, 0.0, 0.0, 0.0, 0.0, 1.7172379462111473E9, 0.0, 2024-06-01 03:32:26.211
53.0, 187500.0, -37699.45802682138, 187500.0, 187500.0, 187500.0, 187500.0, 187500.0, -92686.33636073308, 0.02, -0.002, 0.978, 192.0, 0.0, 0.0, 0.0, 0.0, 0.0, 0.0, 0.0, 0.0, 0.0, 1.7172379462112024E9, 0.0, 2024-06-01 03:32:26.211
54.0, 187500.0, -37698.98864018782, 187500.0, 187500.0, 187500.0, 187500.0, 187500.0, -92727.97766065331, 0.02, -0.002, 0.978, 192.0, 0.0, 0.0, 0.0, 0.0, 0.0, 0.0, 0.0, 0.0, 0.0, 1.7172379462112355E9, 0.0, 2024-06-01 03:32:26.211
55.0, 187500.0, -37784.819338896195, 187500.0, 187500.0, 187500.0, 187500.0, 187500.0, -92807.95220231441, 0.02, -0.002, 0.978, 192.0, 0.0, 0.0, 0.0, 0.0, 0.0, 0.0, 0.0, 0.0, 0.0, 1.717237946211265E9, 0.0, 2024-06-01 03:32:26.211
56.0, 187500.0, -37795.43641751247, 187500.0, 187500.0, 187500.0, 187500.0, 187500.0, -92792.3506846846, 0.02, -0.002, 0.978, 192.0, 0.0, 0.0, 0.0, 0.0, 0.0, 0.0, 0.0, 0.0, 0.0, 1.717237946211295E9, 0.0, 2024-06-01 03:32:26.211
57.0, 187500.0, -37701.71555301137, 187500.0, 187500.0, 187500.0, 187500.0, 187500.0, -92706.81055865415, 0.02, -0.002, 0.978, 192.0, 0.0, 0.0, 0.0, 0.0, 0.0, 0.0, 0.0, 0.0, 0.0, 1.7172379462113245E9, 0.0, 2024-06-01 03:32:26.211
58.0, 187500.0, -37671.25012531878, 187500.0, 187500.0, 187500.0, 187500.0, 187500.0, -92710.81152091164, 0.02, -0.002, 0.978, 192.0, 0.0, 0.0, 0.0, 0.0, 0.0, 0.0, 0.0, 0.0, 0.0, 1.7172379462113545E9, 0.0, 2024-06-01 03:32:26.211
59.0, 187500.0, -37752.18579199145, 187500.0, 187500.0, 187500.0, 187500.0, 187500.0, -92795.9493155419, 0.02, -0.002, 0.98, 192.0, 0.0, 160.0, 255.0, 240.0, 30.0, 160.0, 0.0, 0.0, 0.0, 1.717237946211384E9, 0.0, 2024-06-01 03:32:26.211
60.0, 187500.0, -37795.88345240158, 187500.0, 187500.0, 187500.0, 187500.0, 187500.0, -92807.14753951402, 0.02, -0.002, 0.98, 192.0, 0.0, 0.0, 0.0, 0.0, 0.0, 0.0, 0.0, 0.0, 0.0, 1.717237946211403E9, 0.0, 2024-06-01 03:32:26.211
61.0, 187500.0, -37707.19173040292, 187500.0, 187500.0, 187500.0, 187500.0, 187500.0, -92712.39849476797, 0.02, -0.002, 0.98, 192.0, 0.0, 0.0, 0.0, 0.0, 0.0, 0.0, 0.0, 0.0, 0.0, 1.71723794621142E9, 0.0, 2024-06-01 03:32:26.211
62.0, 187500.0, -37660.07425309113, 187500.0, 187500.0, 187500.0, 187500.0, 187500.0, -92692.37133173601, 0.02, -0.002, 0.98, 192.0, 0.0, 0.0, 0.0, 0.0, 0.0, 0.0, 0.0, 0.0, 0.0, 1.7172379462114372E9, 0.0, 2024-06-01 03:32:26.211
63.0, 187500.0, -37723.46380036638, 187500.0, 187500.0, 187500.0, 187500.0, 187500.0, -92771.00476872979, 0.02, -0.002, 0.98, 192.0, 0.0, 0.0, 0.0, 0.0, 0.0, 0.0, 0.0, 0.0, 0.0, 1.7172379462114544E9, 0.0, 2024-06-01 03:32:26.211
64.0, 187500.0, -37779.85725162712, 187500.0, 187500.0, 187500.0, 187500.0, 187500.0, -92795.88226030854, 0.02, -0.002, 0.98, 192.0, 0.0, 0.0, 0.0, 0.0, 0.0, 0.0, 0.0, 0.0, 0.0, 1.7172379462114716E9, 0.0, 2024-06-01 03:32:26.211
65.0, 187500.0, -37701.4473320779, 187500.0, 187500.0, 187500.0, 187500.0, 187500.0, -92705.06712258662, 0.02, -0.002, 0.98, 192.0, 0.0, 0.0, 0.0, 0.0, 0.0, 0.0, 0.0, 0.0, 0.0, 1.7172379462114885E9, 0.0, 2024-06-01 03:32:26.211
66.0, 187500.0, -37636.80608711315, 187500.0, 187500.0, 187500.0, 187500.0, 187500.0, -92666.89034305696, 0.02, -0.002, 0.98, 192.0, 0.0, 0.0, 0.0, 0.0, 0.0, 0.0, 0.0, 0.0, 0.0, 1.717237946211542E9, 0.0, 2024-06-01 03:32:26.211
67.0, 187500.0, -37690.383218572526, 187500.0, 187500.0, 187500.0, 187500.0, 187500.0, -92737.92418693592, 0.02, -0.002, 0.98, 192.0, 0.0, 0.0, 0.0, 0.0, 0.0, 0.0, 0.0, 0.0, 0.0, 1.7172379462115629E9, 0.0, 2024-06-01 03:32:26.211
68.0, 187500.0, -37757.03612053825, 187500.0, 187500.0, 187500.0, 187500.0, 187500.0, -92784.01348400277, 0.02, -0.002, 0.98, 192.0, 0.0, 0.0, 0.0, 0.0, 0.0, 0.0, 0.0, 0.0, 0.0, 1.717237946211579E9, 0.0, 2024-06-01 03:32:26.211
69.0, 187500.0, -37701.290869866716, 187500.0, 187500.0, 187500.0, 187500.0, 187500.0, -92704.12834931951, 0.018000000000000002, -0.002, 0.974, 192.0, 0.0, 144.0, 255.0, 240.0, 30.0, 112.0, 0.0, 0.0, 0.0, 1.717237946211596E9, 0.0, 2024-06-01 03:32:26.211
70.0, 187500.0, -37617.740049092776, 187500.0, 187500.0, 187500.0, 187500.0, 187500.0, -92644.94093000186, 0.018000000000000002, -0.002, 0.974, 192.0, 0.0, 0.0, 0.0, 0.0, 0.0, 0.0, 0.0, 0.0, 0.0, 1.7172379462116134E9, 0.0, 2024-06-01 03:32:26.211
71.0, 187500.0, -37665.37161652704, 187500.0, 187500.0, 187500.0, 187500.0, 187500.0, -92715.12540759152, 0.018000000000000002, -0.002, 0.974, 192.0, 0.0, 0.0, 0.0, 0.0, 0.0, 0.0, 0.0, 0.0, 0.0, 1.71723794621163E9, 0.0, 2024-06-01 03:32:26.211
72.0, 187500.0, -37748.94478904543, 187500.0, 187500.0, 187500.0, 187500.0, 187500.0, -92785.89103053702, 0.018000000000000002, -0.002, 0.974, 192.0, 0.0, 0.0, 0.0, 0.0, 0.0, 0.0, 0.0, 0.0, 0.0, 1.7172379462116468E9, 0.0, 2024-06-01 03:32:26.211
73.0, 187500.0, -37710.164512415475, 187500.0, 187500.0, 187500.0, 187500.0, 187500.0, -92724.3343263071, 0.018000000000000002, -0.002, 0.974, 192.0, 0.0, 0.0, 0.0, 0.0, 0.0, 0.0, 0.0, 0.0, 0.0, 1.7172379462116635E9, 0.0, 2024-06-01 03:32:26.211
74.0, 187500.0, -37618.74587759327, 187500.0, 187500.0, 187500.0, 187500.0, 187500.0, -92642.43753462286, 0.018000000000000002, -0.002, 0.974, 192.0, 0.0, 0.0, 0.0, 0.0, 0.0, 0.0, 0.0, 0.0, 0.0, 1.71723794621168E9, 0.0, 2024-06-01 03:32:26.211
75.0, 187500.0, -37645.67972966191, 187500.0, 187500.0, 187500.0, 187500.0, 187500.0, -92694.4276922259, 0.018000000000000002, -0.002, 0.974, 192.0, 0.0, 0.0, 0.0, 0.0, 0.0, 0.0, 0.0, 0.0, 0.0, 1.7172379462116969E9, 0.0, 2024-06-01 03:32:26.211
76.0, 187500.0, -37729.118791713576, 187500.0, 187500.0, 187500.0, 187500.0, 187500.0, -92771.42945187444, 0.018000000000000002, -0.002, 0.974, 192.0, 0.0, 0.0, 0.0, 0.0, 0.0, 0.0, 0.0, 0.0, 0.0, 1.7172379462117136E9, 0.0, 2024-06-01 03:32:26.211
77.0, 187500.0, -37719.529893342245, 187500.0, 187500.0, 187500.0, 187500.0, 187500.0, -92730.14577986549, 0.018000000000000002, -0.002, 0.974, 192.0, 0.0, 0.0, 0.0, 0.0, 0.0, 0.0, 0.0, 0.0, 0.0, 1.7172379462117302E9, 0.0, 2024-06-01 03:32:26.211
78.0, 187500.0, -37632.134572521994, 187500.0, 187500.0, 187500.0, 187500.0, 187500.0, -92642.12461020048, 0.018000000000000002, -0.002, 0.974, 192.0, 0.0, 0.0, 0.0, 0.0, 0.0, 0.0, 0.0, 0.0, 0.0, 1.7172379462117467E9, 0.0, 2024-06-01 03:32:26.211
79.0, 187500.0, -37630.36878471003, 187500.0, 187500.0, 187500.0, 187500.0, 187500.0, -92662.50940114372, 0.018000000000000002, 0.0, 0.98, 192.0, 0.0, 144.0, 0.0, 0.0, 30.0, 160.0, 0.0, 0.0, 0.0, 1.7172379462117636E9, 0.0, 2024-06-01 03:32:26.211
80.0, 187500.0, -37705.13536991303, 187500.0, 187500.0, 187500.0, 187500.0, 187500.0, -92744.92028295044, 0.018000000000000002, 0.0, 0.98, 192.0, 0.0, 0.0, 0.0, 0.0, 0.0, 0.0, 0.0, 0.0, 0.0, 1.7172379462117805E9, 0.0, 2024-06-01 03:32:26.211
81.0, 187500.0, -37716.89238749652, 187500.0, 187500.0, 187500.0, 187500.0, 187500.0, -92733.69970723387, 0.018000000000000002, 0.0, 0.98, 192.0, 0.0, 0.0, 0.0, 0.0, 0.0, 0.0, 0.0, 0.0, 0.0, 1.717237946211809E9, 0.0, 2024-06-01 03:32:26.211
82.0, 187500.0, -37632.22397949982, 187500.0, 187500.0, 187500.0, 187500.0, 187500.0, -92635.28497639716, 0.018000000000000002, 0.0, 0.98, 192.0, 0.0, 0.0, 0.0, 0.0, 0.0, 0.0, 0.0, 0.0, 0.0, 1.7172379462118256E9, 0.0, 2024-06-01 03:32:26.211
83.0, 187500.0, -37613.22499671281, 187500.0, 187500.0, 187500.0, 187500.0, 187500.0, -92658.77665981969, 0.018000000000000002, 0.0, 0.98, 192.0, 0.0, 0.0, 0.0, 0.0, 0.0, 0.0, 0.0, 0.0, 0.0, 1.7172379462118423E9, 0.0, 2024-06-01 03:32:26.211
84.0, 187500.0, -37694.87591920804, 187500.0, 187500.0, 187500.0, 187500.0, 187500.0, -92755.55971331117, 0.018000000000000002, 0.0, 0.98, 192.0, 0.0, 0.0, 0.0, 0.0, 0.0, 0.0, 0.0, 0.0, 0.0, 1.7172379462118585E9, 0.0, 2024-06-01 03:32:26.211
85.0, 187500.0, -37738.1041929846, 187500.0, 187500.0, 187500.0, 187500.0, 187500.0, -92758.890123235, 0.018000000000000002, 0.0, 0.98, 192.0, 0.0, 0.0, 0.0, 0.0, 0.0, 0.0, 0.0, 0.0, 0.0, 1.7172379462118752E9, 0.0, 2024-06-01 03:32:26.211
86.0, 187500.0, -37659.06842459064, 187500.0, 187500.0, 187500.0, 187500.0, 187500.0, -92664.76692733371, 0.018000000000000002, 0.0, 0.98, 192.0, 0.0, 0.0, 0.0, 0.0, 0.0, 0.0, 0.0, 0.0, 0.0, 1.7172379462118917E9, 0.0, 2024-06-01 03:32:26.211
87.0, 187500.0, -37621.383383438995, 187500.0, 187500.0, 187500.0, 187500.0, 187500.0, -92650.79708704914, 0.018000000000000002, 0.0, 0.98, 192.0, 0.0, 0.0, 0.0, 0.0, 0.0, 0.0, 0.0, 0.0, 0.0, 1.717237946211908E9, 0.0, 2024-06-01 03:32:26.211
88.0, 187500.0, -37688.05863714917, 187500.0, 187500.0, 187500.0, 187500.0, 187500.0, -92729.47522753183, 0.018000000000000002, 0.0, 0.98, 192.0, 0.0, 0.0, 0.0, 0.0, 0.0, 0.0, 0.0, 0.0, 0.0, 1.7172379462119243E9, 0.0, 2024-06-01 03:32:26.211
89.0, 187500.0, -37730.929283014455, 187500.0, 187500.0, 187500.0, 187500.0, 187500.0, -92744.29443410569, 0.018000000000000002, -0.004, 0.984, 192.0, 0.0, 144.0, 255.0, 224.0, 30.0, 192.0, 0.0, 0.0, 0.0, 1.717237946211941E9, 0.0, 2024-06-01 03:32:26.211
90.0, 187500.0, -37658.93431412391, 187500.0, 187500.0, 187500.0, 187500.0, 187500.0, -92657.7708313192, 0.018000000000000002, -0.004, 0.984, 192.0, 0.0, 0.0, 0.0, 0.0, 0.0, 0.0, 0.0, 0.0, 0.0, 1.7172379462119584E9, 0.0, 2024-06-01 03:32:26.211
91.0, 187500.0, -37600.86448202902, 187500.0, 187500.0, 187500.0, 187500.0, 187500.0, -92630.05466819461, 0.018000000000000002, -0.004, 0.984, 192.0, 0.0, 0.0, 0.0, 0.0, 0.0, 0.0, 0.0, 0.0, 0.0, 1.717237946211975E9, 0.0, 2024-06-01 03:32:26.211
92.0, 187500.0, -37658.4872792348, 187500.0, 187500.0, 187500.0, 187500.0, 187500.0, -92715.50538724726, 0.018000000000000002, -0.004, 0.984, 192.0, 0.0, 0.0, 0.0, 0.0, 0.0, 0.0, 0.0, 0.0, 0.0, 1.7172379462119915E9, 0.0, 2024-06-01 03:32:26.211
93.0, 187500.0, -37735.64550109452, 187500.0, 187500.0, 187500.0, 187500.0, 187500.0, -92773.88814376452, 0.018000000000000002, -0.004, 0.984, 192.0, 0.0, 0.0, 0.0, 0.0, 0.0, 0.0, 0.0, 0.0, 0.0, 1.7172379462120082E9, 0.0, 2024-06-01 03:32:26.212
94.0, 187500.0, -37689.01976216075, 187500.0, 187500.0, 187500.0, 187500.0, 187500.0, -92697.48988121629, 0.018000000000000002, -0.004, 0.984, 192.0, 0.0, 0.0, 0.0, 0.0, 0.0, 0.0, 0.0, 0.0, 0.0, 1.7172379462120247E9, 0.0, 2024-06-01 03:32:26.212
95.0, 187500.0, -37610.609842611535, 187500.0, 187500.0, 187500.0, 187500.0, 187500.0, -92633.13920892945, 0.018000000000000002, -0.004, 0.984, 192.0, 0.0, 0.0, 0.0, 0.0, 0.0, 0.0, 0.0, 0.0, 0.0, 1.7172379462120416E9, 0.0, 2024-06-01 03:32:26.212
96.0, 187500.0, -37648.987787841295, 187500.0, 187500.0, 187500.0, 187500.0, 187500.0, -92698.36159925004, 0.018000000000000002, -0.004, 0.984, 192.0, 0.0, 0.0, 0.0, 0.0, 0.0, 0.0, 0.0, 0.0, 0.0, 1.7172379462120693E9, 0.0, 2024-06-01 03:32:26.212
97.0, 187500.0, -37728.98468124684, 187500.0, 187500.0, 187500.0, 187500.0, 187500.0, -92773.73168155333, 0.018000000000000002, -0.004, 0.984, 192.0, 0.0, 0.0, 0.0, 0.0, 0.0, 0.0, 0.0, 0.0, 0.0, 1.717237946212086E9, 0.0, 2024-06-01 03:32:26.212
98.0, 187500.0, -37693.91479419646, 187500.0, 187500.0, 187500.0, 187500.0, 187500.0, -92704.01659059722, 0.018000000000000002, -0.004, 0.984, 192.0, 0.0, 0.0, 0.0, 0.0, 0.0, 0.0, 0.0, 0.0, 0.0, 1.7172379462121024E9, 0.0, 2024-06-01 03:32:26.212
99.0, 187500.0, -37605.714810575824, 187500.0, 187500.0, 187500.0, 187500.0, 187500.0, -92632.75922927371, 0.018000000000000002, -0.004, 0.984, 192.0, 0.0, 144.0, 255.0, 224.0, 30.0, 192.0, 0.0, 0.0, 0.0, 1.717237946212119E9, 0.0, 2024-06-01 03:32:26.212
100.0, 187500.0, -37630.90522657696, 187500.0, 187500.0, 187500.0, 187500.0, 187500.0, -92699.90386961745, 0.018000000000000002, -0.004, 0.984, 192.0, 0.0, 0.0, 0.0, 0.0, 0.0, 0.0, 0.0, 0.0, 0.0, 1.7172379462121365E9, 0.0, 2024-06-01 03:32:26.212
101.0, 187500.0, -37719.61930032007, 187500.0, 187500.0, 187500.0, 187500.0, 187500.0, -92770.6471408185, 0.018000000000000002, -0.004, 0.984, 192.0, 0.0, 0.0, 0.0, 0.0, 0.0, 0.0, 0.0, 0.0, 0.0, 1.7172379462121532E9, 0.0, 2024-06-01 03:32:26.212
102.0, 187500.0, -37722.21210267688, 187500.0, 187500.0, 187500.0, 187500.0, 187500.0, -92727.91060541995, 0.018000000000000002, -0.004, 0.984, 192.0, 0.0, 0.0, 0.0, 0.0, 0.0, 0.0, 0.0, 0.0, 0.0, 1.7172379462121696E9, 0.0, 2024-06-01 03:32:26.212
103.0, 187500.0, -37633.118049278026, 187500.0, 187500.0, 187500.0, 187500.0, 187500.0, -92653.94868301734, 0.018000000000000002, -0.004, 0.984, 192.0, 0.0, 0.0, 0.0, 0.0, 0.0, 0.0, 0.0, 0.0, 0.0, 1.717237946212186E9, 0.0, 2024-06-01 03:32:26.212
104.0, 187500.0, -37630.12291552102, 187500.0, 187500.0, 187500.0, 187500.0, 187500.0, -92686.69398864437, 0.018000000000000002, -0.004, 0.984, 192.0, 0.0, 0.0, 0.0, 0.0, 0.0, 0.0, 0.0, 0.0, 0.0, 1.7172379462122028E9, 0.0, 2024-06-01 03:32:26.212
105.0, 187500.0, -37709.51631182627, 187500.0, 187500.0, 187500.0, 187500.0, 187500.0, -92768.03198671722, 0.018000000000000002, -0.004, 0.984, 192.0, 0.0, 0.0, 0.0, 0.0, 0.0, 0.0, 0.0, 0.0, 0.0, 1.7172379462122192E9, 0.0, 2024-06-01 03:32:26.212
106.0, 187500.0, -37724.71549805588, 187500.0, 187500.0, 187500.0, 187500.0, 187500.0, -92739.891140448, 0.018000000000000002, -0.004, 0.984, 192.0, 0.0, 0.0, 0.0, 0.0, 0.0, 0.0, 0.0, 0.0, 0.0, 1.717237946212236E9, 0.0, 2024-06-01 03:32:26.212
107.0, 187500.0, -37637.029604557705, 187500.0, 187500.0, 187500.0, 187500.0, 187500.0, -92627.84184549355, 0.018000000000000002, -0.004, 0.984, 192.0, 0.0, 0.0, 0.0, 0.0, 0.0, 0.0, 0.0, 0.0, 0.0, 1.7172379462122524E9, 0.0, 2024-06-01 03:32:26.212
108.0, 187500.0, -37612.845017057065, 187500.0, 187500.0, 187500.0, 187500.0, 187500.0, -92658.06140399711, 0.018000000000000002, -0.004, 0.984, 192.0, 0.0, 0.0, 0.0, 0.0, 0.0, 0.0, 0.0, 0.0, 0.0, 1.7172379462122693E9, 0.0, 2024-06-01 03:32:26.212
109.0, 187500.0, -37689.08681739412, 187500.0, 187500.0, 187500.0, 187500.0, 187500.0, -92764.23219015983, 0.018000000000000002, -0.004, 0.98, 192.0, 0.0, 144.0, 255.0, 224.0, 30.0, 160.0, 0.0, 0.0, 0.0, 1.7172379462122858E9, 0.0, 2024-06-01 03:32:26.212
110.0, 187500.0, -37729.99050974733, 187500.0, 187500.0, 187500.0, 187500.0, 187500.0, -92771.11652745206, 0.018000000000000002, -0.004, 0.98, 192.0, 0.0, 0.0, 0.0, 0.0, 0.0, 0.0, 0.0, 0.0, 0.0, 1.7172379462123032E9, 0.0, 2024-06-01 03:32:26.212
111.0, 187500.0, -37664.76811942674, 187500.0, 187500.0, 187500.0, 187500.0, 187500.0, -92686.89515434447, 0.018000000000000002, -0.004, 0.98, 192.0, 0.0, 0.0, 0.0, 0.0, 0.0, 0.0, 0.0, 0.0, 0.0, 1.7172379462123291E9, 0.0, 2024-06-01 03:32:26.212
112.0, 187500.0, -37620.601072383055, 187500.0, 187500.0, 187500.0, 187500.0, 187500.0, -92668.03028202419, 0.018000000000000002, -0.004, 0.98, 192.0, 0.0, 0.0, 0.0, 0.0, 0.0, 0.0, 0.0, 0.0, 0.0, 1.717237946212346E9, 0.0, 2024-06-01 03:32:26.212
113.0, 187500.0, -37675.38519804301, 187500.0, 187500.0, 187500.0, 187500.0, 187500.0, -92744.04856491668, 0.018000000000000002, -0.004, 0.98, 192.0, 0.0, 0.0, 0.0, 0.0, 0.0, 0.0, 0.0, 0.0, 0.0, 1.7172379462123628E9, 0.0, 2024-06-01 03:32:26.212
114.0, 187500.0, -37735.71255632789, 187500.0, 187500.0, 187500.0, 187500.0, 187500.0, -92793.69178935193, 0.018000000000000002, -0.004, 0.98, 192.0, 0.0, 0.0, 0.0, 0.0, 0.0, 0.0, 0.0, 0.0, 0.0, 1.7172379462123792E9, 0.0, 2024-06-01 03:32:26.212
115.0, 187500.0, -37670.8924974075, 187500.0, 187500.0, 187500.0, 187500.0, 187500.0, -92712.42084651242, 0.018000000000000002, -0.004, 0.98, 192.0, 0.0, 0.0, 0.0, 0.0, 0.0, 0.0, 0.0, 0.0, 0.0, 1.717237946212396E9, 0.0, 2024-06-01 03:32:26.212
116.0, 187500.0, -37611.28039494519, 187500.0, 187500.0, 187500.0, 187500.0, 187500.0, -92663.0234912662, 0.018000000000000002, -0.004, 0.98, 192.0, 0.0, 0.0, 0.0, 0.0, 0.0, 0.0, 0.0, 0.0, 0.0, 1.7172379462124124E9, 0.0, 2024-06-01 03:32:26.212
117.0, 187500.0, -37662.82351765913, 187500.0, 187500.0, 187500.0, 187500.0, 187500.0, -92740.11465789255, 0.018000000000000002, -0.004, 0.98, 192.0, 0.0, 0.0, 0.0, 0.0, 0.0, 0.0, 0.0, 0.0, 0.0, 1.7172379462124288E9, 0.0, 2024-06-01 03:32:26.212
118.0, 187500.0, -37726.21306493438, 187500.0, 187500.0, 187500.0, 187500.0, 187500.0, -92781.44303339042, 0.018000000000000002, -0.004, 0.98, 192.0, 0.0, 0.0, 0.0, 0.0, 0.0, 0.0, 0.0, 0.0, 0.0, 1.7172379462124455E9, 0.0, 2024-06-01 03:32:26.212
119.0, 187500.0, -37683.00714290227, 187500.0, 187500.0, 187500.0, 187500.0, 187500.0, -92712.71141919034, 0.02, -0.004, 0.976, 192.0, 0.0, 160.0, 255.0, 224.0, 30.0, 128.0, 0.0, 0.0, 0.0, 1.717237946212462E9, 0.0, 2024-06-01 03:32:26.212
120.0, 187500.0, -37607.83822629908, 187500.0, 187500.0, 187500.0, 187500.0, 187500.0, -92644.42683987938, 0.02, -0.004, 0.976, 192.0, 0.0, 0.0, 0.0, 0.0, 0.0, 0.0, 0.0, 0.0, 0.0, 1.7172379462124794E9, 0.0, 2024-06-01 03:32:26.212
121.0, 187500.0, -37643.601017427565, 187500.0, 187500.0, 187500.0, 187500.0, 187500.0, -92714.70072444687, 0.02, -0.004, 0.976, 192.0, 0.0, 0.0, 0.0, 0.0, 0.0, 0.0, 0.0, 0.0, 0.0, 1.7172379462124944E9, 0.0, 2024-06-01 03:32:26.212
122.0, 187500.0, -37727.1071347126, 187500.0, 187500.0, 187500.0, 187500.0, 187500.0, -92797.24571672031, 0.02, -0.004, 0.976, 192.0, 0.0, 0.0, 0.0, 0.0, 0.0, 0.0, 0.0, 0.0, 0.0, 1.717237946212508E9, 0.0, 2024-06-01 03:32:26.212
123.0, 187500.0, -37703.5483960567, 187500.0, 187500.0, 187500.0, 187500.0, 187500.0, -92743.98150968332, 0.02, -0.004, 0.976, 192.0, 0.0, 0.0, 0.0, 0.0, 0.0, 0.0, 0.0, 0.0, 0.0, 1.7172379462125216E9, 0.0, 2024-06-01 03:32:26.212
124.0, 187500.0, -37612.33092693459, 187500.0, 187500.0, 187500.0, 187500.0, 187500.0, -92658.6201976085, 0.02, -0.004, 0.976, 192.0, 0.0, 0.0, 0.0, 0.0, 0.0, 0.0, 0.0, 0.0, 0.0, 1.717237946212535E9, 0.0, 2024-06-01 03:32:26.212
125.0, 187500.0, -37624.26675847373, 187500.0, 187500.0, 187500.0, 187500.0, 187500.0, -92700.39560799547, 0.02, -0.004, 0.976, 192.0, 0.0, 0.0, 0.0, 0.0, 0.0, 0.0, 0.0, 0.0, 0.0, 1.717237946212548E9, 0.0, 2024-06-01 03:32:26.212
