%OpenBCI Raw EXG Data
%Number of channels = 8
%Sample Rate = 250 Hz
%Board = OpenBCI_GUI$BoardCytonSerial
Sample Index, EXG Channel 0, EXG Channel 1, EXG Channel 2, EXG Channel 3, EXG Channel 4, EXG Channel 5, EXG Channel 6, EXG Channel 7, Accel Channel 0, Accel Channel 1, Accel Channel 2, Other, Other, Other, Other, Other, Other, Other, Analog Channel 0, Analog Channel 1, Analog Channel 2, Timestamp, Other, Timestamp (Formatted)
0.0, 0.0, 0.0, 0.0, 0.0, 0.0, 0.0, 0.0, 0.0, 0.0, 0.0, 0.0, 192.0, 0.0, 0.0, 0.0, 0.0, 0.0, 0.0, 0.0, 0.0, 0.0, 1.7172378755501473E9, 0.0, 2024-06-01 03:31:15.550
1.0, 187500.0, -39522.51100808514, 187500.0, 187500.0, 187500.0, 187500.0, 187500.0, -83672.21309807457, 0.002, -0.048, 0.976, 192.0, 0.0, 16.0, 254.0, 128.0, 30.0, 128.0, 0.0, 0.0, 0.0, 1.7172378760358677E9, 0.0, 2024-06-01 03:31:16.035
2.0, 187500.0, -39429.08071626195, 187500.0, 187500.0, 187500.0, 187500.0, 187500.0, -83575.89943121666, 0.002, -0.048, 0.976, 192.0, 0.0, 0.0, 0.0, 0.0, 0.0, 0.0, 0.0, 0.0, 0.0, 1.717237876035918E9, 0.0, 2024-06-01 03:31:16.035
3.0, 187500.0, -39366.11585213135, 187500.0, 187500.0, 187500.0, 187500.0, 187500.0, -83546.97627389149, 0.002, -0.048, 0.976, 192.0, 0.0, 0.0, 0.0, 0.0, 0.0, 0.0, 0.0, 0.0, 0.0, 1.7172378760359452E9, 0.0, 2024-06-01 03:31:16.035
4.0, 187500.0, -39439.85425708941, 187500.0, 187500.0, 187500.0, 187500.0, 187500.0, -83643.62521691623, 0.002, -0.048, 0.976, 192.0, 0.0, 0.0, 0.0, 0.0, 0.0, 0.0, 0.0, 0.0, 0.0, 1.7172378760359724E9, 0.0, 2024-06-01 03:31:16.035
5.0, 187500.0, -39502.90852819783, 187500.0, 187500.0, 187500.0, 187500.0, 187500.0, -83691.16737737268, 0.002, -0.048, 0.976, 192.0, 0.0, 0.0, 0.0, 0.0, 0.0, 0.0, 0.0, 0.0, 0.0, 1.717237876036E9, 0.0, 2024-06-01 03:31:16.036
6.0, 187500.0, -39428.07488776146, 187500.0, 187500.0, 187500.0, 187500.0, 187500.0, -83607.34833566527, 0.002, -0.048, 0.976, 192.0, 0.0, 0.0, 0.0, 0.0, 0.0, 0.0, 0.0, 0.0, 0.0, 1.7172378760360272E9, 0.0, 2024-06-01 03:31:16.036
7.0, 187500.0, -39352.70480545817, 187500.0, 187500.0, 187500.0, 187500.0, 187500.0, -83542.19300057805, 0.002, -0.048, 0.976, 192.0, 0.0, 0.0, 0.0, 0.0, 0.0, 0.0, 0.0, 0.0, 0.0, 1.7172378760360548E9, 0.0, 2024-06-01 03:31:16.036
8.0, 187500.0, -39408.69592531871, 187500.0, 187500.0, 187500.0, 187500.0, 187500.0, -83610.99167001148, 0.008, -0.028, 0.978, 192.0, 0.0, 64.0, 255.0, 32.0, 30.0, 144.0, 0.0, 0.0, 0.0, 1.7172378760360713E9, 0.0, 2024-06-01 03:31:16.036
9.0, 187500.0, -39510.262252123626, 187500.0, 187500.0, 187500.0, 187500.0, 187500.0, -83675.65526672069, 0.008, -0.028, 0.978, 192.0, 0.0, 0.0, 0.0, 0.0, 0.0, 0.0, 0.0, 0.0, 0.0, 1.7172378760360892E9, 0.0, 2024-06-01 03:31:16.036
10.0, 187500.0, -39467.90569638082, 187500.0, 187500.0, 187500.0, 187500.0, 187500.0, -83609.73997232199, 0.008, -0.028, 0.978, 192.0, 0.0, 0.0, 0.0, 0.0, 0.0, 0.0, 0.0, 0.0, 0.0, 1.717237876036107E9, 0.0, 2024-06-01 03:31:16.036
11.0, 187500.0, -39375.36947433585, 187500.0, 187500.0, 187500.0, 187500.0, 187500.0, -83565.50587004493, 0.008, -0.028, 0.978, 192.0, 0.0, 0.0, 0.0, 0.0, 0.0, 0.0, 0.0, 0.0, 0.0, 1.7172378760361233E9, 0.0, 2024-06-01 03:31:16.036
12.0, 187500.0, -39415.535559122036, 187500.0, 187500.0, 187500.0, 187500.0, 187500.0, -83645.14513553919, 0.008, -0.028, 0.978, 192.0, 0.0, 0.0, 0.0, 0.0, 0.0, 0.0, 0.0, 0.0, 0.0, 1.7172378760361392E9, 0.0, 2024-06-01 03:31:16.036
13.0, 187500.0, -39508.56351954502, 187500.0, 187500.0, 187500.0, 187500.0, 187500.0, -83716.1566276737, 0.008, -0.028, 0.978, 192.0, 0.0, 0.0, 0.0, 0.0, 0.0, 0.0, 0.0, 0.0, 0.0, 1.7172378760361552E9, 0.0, 2024-06-01 03:31:16.036
14.0, 187500.0, -39485.60827798942, 187500.0, 187500.0, 187500.0, 187500.0, 187500.0, -83654.77873739944, 0.008, -0.028, 0.978, 192.0, 0.0, 0.0, 0.0, 0.0, 0.0, 0.0, 0.0, 0.0, 0.0, 1.7172378760361707E9, 0.0, 2024-06-01 03:31:16.036
15.0, 187500.0, -39393.094407688906, 187500.0, 187500.0, 187500.0, 187500.0, 187500.0, -83574.55832654933, 0.008, -0.028, 0.978, 192.0, 0.0, 0.0, 0.0, 0.0, 0.0, 0.0, 0.0, 0.0, 0.0, 1.7172378760361867E9, 0.0, 2024-06-01 03:31:16.036
16.0, 187500.0, -39399.91168974778, 187500.0, 187500.0, 187500.0, 187500.0, 187500.0, -83617.85365555927, 0.008, -0.028, 0.978, 192.0, 0.0, 0.0, 0.0, 0.0, 0.0, 0.0, 0.0, 0.0, 0.0, 1.7172378760364006E9, 0.0, 2024-06-01 03:31:16.036
17.0, 187500.0, -39484.51304251111, 187500.0, 187500.0, 187500.0, 187500.0, 187500.0, -83689.8486244498, 0.008, -0.028, 0.978, 192.0, 0.0, 0.0, 0.0, 0.0, 0.0, 0.0, 0.0, 0.0, 0.0, 1.7172378760364156E9, 0.0, 2024-06-01 03:31:16.036
18.0, 187500.0, -39481.36144654291, 187500.0, 187500.0, 187500.0, 187500.0, 187500.0, -83659.18203105713, 0.018000000000000002, -0.014, 0.984, 192.0, 0.0, 144.0, 255.0, 144.0, 30.0, 192.0, 0.0, 0.0, 0.0, 1.7172378760364285E9, 0.0, 2024-06-01 03:31:16.036
19.0, 187500.0, -39386.79121575251, 187500.0, 187500.0, 187500.0, 187500.0, 187500.0, -83581.44266384158, 0.018000000000000002, -0.014, 0.984, 192.0, 0.0, 0.0, 0.0, 0.0, 0.0, 0.0, 0.0, 0.0, 0.0, 1.7172378760364428E9, 0.0, 2024-06-01 03:31:16.036
20.0, 187500.0, -39397.16242517978, 187500.0, 187500.0, 187500.0, 187500.0, 187500.0, -83614.81381831334, 0.018000000000000002, -0.014, 0.984, 192.0, 0.0, 0.0, 0.0, 0.0, 0.0, 0.0, 0.0, 0.0, 0.0, 1.7172378760364568E9, 0.0, 2024-06-01 03:31:16.036
21.0, 187500.0, -39491.48678678117, 187500.0, 187500.0, 187500.0, 187500.0, 187500.0, -83710.00989794849, 0.018000000000000002, -0.014, 0.984, 192.0, 0.0, 0.0, 0.0, 0.0, 0.0, 0.0, 0.0, 0.0, 0.0, 1.7172378760364695E9, 0.0, 2024-06-01 03:31:16.036
22.0, 187500.0, -39509.03290617859, 187500.0, 187500.0, 187500.0, 187500.0, 187500.0, -83701.51623505547, 0.018000000000000002, -0.014, 0.984, 192.0, 0.0, 0.0, 0.0, 0.0, 0.0, 0.0, 0.0, 0.0, 0.0, 1.717237876036482E9, 0.0, 2024-06-01 03:31:16.036
23.0, 187500.0, -39408.51711136307, 187500.0, 187500.0, 187500.0, 187500.0, 187500.0, -83599.79344603937, 0.018000000000000002, -0.014, 0.984, 192.0, 0.0, 0.0, 0.0, 0.0, 0.0, 0.0, 0.0, 0.0, 0.0, 1.7172378760364983E9, 0.0, 2024-06-01 03:31:16.036
24.0, 187500.0, -39386.92532621924, 187500.0, 187500.0, 187500.0, 187500.0, 187500.0, -83608.19770195457, 0.018000000000000002, -0.014, 0.984, 192.0, 0.0, 0.0, 0.0, 0.0, 0.0, 0.0, 0.0, 0.0, 0.0, 1.717237876036511E9, 0.0, 2024-06-01 03:31:16.036
25.0, 187500.0, -39483.618972732904, 187500.0, 187500.0, 187500.0, 187500.0, 187500.0, -83725.70082255613, 0.018000000000000002, -0.014, 0.984, 192.0, 0.0, 0.0, 0.0, 0.0, 0.0, 0.0, 0.0, 0.0, 0.0, 1.7172378760365236E9, 0.0, 2024-06-01 03:31:16.036
26.0, 187500.0, -39537.41962163682, 187500.0, 187500.0, 187500.0, 187500.0, 187500.0, -83749.4160234232, 0.018000000000000002, -0.014, 0.984, 192.0, 0.0, 0.0, 0.0, 0.0, 0.0, 0.0, 0.0, 0.0, 0.0, 1.7172378760365362E9, 0.0, 2024-06-01 03:31:16.036
27.0, 187500.0, -39462.94360911174, 187500.0, 187500.0, 187500.0, 187500.0, 187500.0, -83651.18010654213, 0.018000000000000002, -0.014, 0.984, 192.0, 0.0, 0.0, 0.0, 0.0, 0.0, 0.0, 0.0, 0.0, 0.0, 1.7172378760365489E9, 0.0, 2024-06-01 03:31:16.036
28.0, 187500.0, -39417.61427135638, 187500.0, 187500.0, 187500.0, 187500.0, 187500.0, -83631.8905510772, 0.016, -0.008, 0.984, 192.0, 0.0, 128.0, 255.0, 192.0, 30.0, 192.0, 0.0, 0.0, 0.0, 1.7172378760365615E9, 0.0, 2024-06-01 03:31:16.036
29.0, 187500.0, -39503.04263866456, 187500.0, 187500.0, 187500.0, 187500.0, 187500.0, -83752.12058450229, 0.016, -0.008, 0.984, 192.0, 0.0, 0.0, 0.0, 0.0, 0.0, 0.0, 0.0, 0.0, 0.0, 1.717237876036575E9, 0.0, 2024-06-01 03:31:16.036
30.0, 187500.0, -39571.23781099771, 187500.0, 187500.0, 187500.0, 187500.0, 187500.0, -83795.88530014579, 0.016, -0.008, 0.984, 192.0, 0.0, 0.0, 0.0, 0.0, 0.0, 0.0, 0.0, 0.0, 0.0, 1.717237876036588E9, 0.0, 2024-06-01 03:31:16.036
31.0, 187500.0, -39514.55378705905, 187500.0, 187500.0, 187500.0, 187500.0, 187500.0, -83709.09347642583, 0.016, -0.008, 0.984, 192.0, 0.0, 0.0, 0.0, 0.0, 0.0, 0.0, 0.0, 0.0, 0.0, 1.7172378760366344E9, 0.0, 2024-06-01 03:31:16.036
32.0, 187500.0, -39450.11370779439, 187500.0, 187500.0, 187500.0, 187500.0, 187500.0, -83669.73205444003, 0.016, -0.008, 0.984, 192.0, 0.0, 0.0, 0.0, 0.0, 0.0, 0.0, 0.0, 0.0, 0.0, 1.7172378760366473E9, 0.0, 2024-06-01 03:31:16.036
33.0, 187500.0, -39511.40219109085, 187500.0, 187500.0, 187500.0, 187500.0, 187500.0, -83763.7211398746, 0.016, -0.008, 0.984, 192.0, 0.0, 0.0, 0.0, 0.0, 0.0, 0.0, 0.0, 0.0, 0.0, 1.71723787603666E9, 0.0, 2024-06-01 03:31:16.036
34.0, 187500.0, -39605.50303524769, 187500.0, 187500.0, 187500.0, 187500.0, 187500.0, -83835.26907387604, 0.016, -0.008, 0.984, 192.0, 0.0, 0.0, 0.0, 0.0, 0.0, 0.0, 0.0, 0.0, 0.0, 1.7172378760366724E9, 0.0, 2024-06-01 03:31:16.036
35.0, 187500.0, -39582.346627991996, 187500.0, 187500.0, 187500.0, 187500.0, 187500.0, -83787.68220993069, 0.016, -0.008, 0.984, 192.0, 0.0, 0.0, 0.0, 0.0, 0.0, 0.0, 0.0, 0.0, 0.0, 1.717237876036685E9, 0.0, 2024-06-01 03:31:16.036
36.0, 187500.0, -39502.59560377546, 187500.0, 187500.0, 187500.0, 187500.0, 187500.0, -83725.47730511156, 0.016, -0.008, 0.984, 192.0, 0.0, 0.0, 0.0, 0.0, 0.0, 0.0, 0.0, 0.0, 0.0, 1.7172378760366976E9, 0.0, 2024-06-01 03:31:16.036
37.0, 187500.0, -39539.900665271365, 187500.0, 187500.0, 187500.0, 187500.0, 187500.0, -83785.08940757388, 0.016, -0.008, 0.984, 192.0, 0.0, 0.0, 0.0, 0.0, 0.0, 0.0, 0.0, 0.0, 0.0, 1.71723787603671E9, 0.0, 2024-06-01 03:31:16.036
38.0, 187500.0, -39639.96942519777, 187500.0, 187500.0, 187500.0, 187500.0, 187500.0, -83870.54012662651, 0.018000000000000002, -0.004, 0.98, 192.0, 0.0, 144.0, 255.0, 224.0, 30.0, 160.0, 0.0, 0.0, 0.0, 1.717237876036723E9, 0.0, 2024-06-01 03:31:16.036
39.0, 187500.0, -39625.99958491321, 187500.0, 187500.0, 187500.0, 187500.0, 187500.0, -83814.77252421052, 0.018000000000000002, -0.004, 0.98, 192.0, 0.0, 0.0, 0.0, 0.0, 0.0, 0.0, 0.0, 0.0, 0.0, 1.717237876036736E9, 0.0, 2024-06-01 03:31:16.036
40.0, 187500.0, -39535.18444719129, 187500.0, 187500.0, 187500.0, 187500.0, 187500.0, -83729.25474992451, 0.018000000000000002, -0.004, 0.98, 192.0, 0.0, 0.0, 0.0, 0.0, 0.0, 0.0, 0.0, 0.0, 0.0, 1.7172378760367484E9, 0.0, 2024-06-01 03:31:16.036
41.0, 187500.0, -39555.18925847879, 187500.0, 187500.0, 187500.0, 187500.0, 187500.0, -83809.29634681897, 0.018000000000000002, -0.004, 0.98, 192.0, 0.0, 0.0, 0.0, 0.0, 0.0, 0.0, 0.0, 0.0, 0.0, 1.7172378760367613E9, 0.0, 2024-06-01 03:31:16.036
42.0, 187500.0, -39652.39699511493, 187500.0, 187500.0, 187500.0, 187500.0, 187500.0, -83902.48076945315, 0.018000000000000002, -0.004, 0.98, 192.0, 0.0, 0.0, 0.0, 0.0, 0.0, 0.0, 0.0, 0.0, 0.0, 1.7172378760367737E9, 0.0, 2024-06-01 03:31:16.036
43.0, 187500.0, -39681.99070477375, 187500.0, 187500.0, 187500.0, 187500.0, 187500.0, -83888.57798440194, 0.018000000000000002, -0.004, 0.98, 192.0, 0.0, 0.0, 0.0, 0.0, 0.0, 0.0, 0.0, 0.0, 0.0, 1.7172378760367863E9, 0.0, 2024-06-01 03:31:16.036
44.0, 187500.0, -39603.35726777998, 187500.0, 187500.0, 187500.0, 187500.0, 187500.0, -83811.9338526647, 0.018000000000000002, -0.004, 0.98, 192.0, 0.0, 0.0, 0.0, 0.0, 0.0, 0.0, 0.0, 0.0, 0.0, 1.7172378760368006E9, 0.0, 2024-06-01 03:31:16.036
45.0, 187500.0, -39588.269840272646, 187500.0, 187500.0, 187500.0, 187500.0, 187500.0, -83837.52660006602, 0.018000000000000002, -0.004, 0.98, 192.0, 0.0, 0.0, 0.0, 0.0, 0.0, 0.0, 0.0, 0.0, 0.0, 1.7172378760368133E9, 0.0, 2024-06-01 03:31:16.036
46.0, 187500.0, -39663.81873653159, 187500.0, 187500.0, 187500.0, 187500.0, 187500.0, -83915.51183647058, 0.018000000000000002, -0.004, 0.98, 192.0, 0.0, 0.0, 0.0, 0.0, 0.0, 0.0, 0.0, 0.0, 0.0, 1.7172378760368352E9, 0.0, 2024-06-01 03:31:16.036
47.0, 187500.0, -39684.739969341754, 187500.0, 187500.0, 187500.0, 187500.0, 187500.0, -83907.82283637796, 0.012, -0.008, 0.984, 192.0, 0.0, 96.0, 255.0, 192.0, 30.0, 192.0, 0.0, 0.0, 0.0, 1.717237876036848E9, 0.0, 2024-06-01 03:31:16.036
48.0, 187500.0, -39582.30192450308, 187500.0, 187500.0, 187500.0, 187500.0, 187500.0, -83794.76771292303, 0.012, -0.008, 0.984, 192.0, 0.0, 0.0, 0.0, 0.0, 0.0, 0.0, 0.0, 0.0, 0.0, 1.7172378760368607E9, 0.0, 2024-06-01 03:31:16.036
49.0, 187500.0, -39543.58870310649, 187500.0, 187500.0, 187500.0, 187500.0, 187500.0, -83776.01459932502, 0.012, -0.008, 0.984, 192.0, 0.0, 0.0, 0.0, 0.0, 0.0, 0.0, 0.0, 0.0, 0.0, 1.7172378760368736E9, 0.0, 2024-06-01 03:31:16.036
50.0, 187500.0, -39614.04140162962, 187500.0, 187500.0, 187500.0, 187500.0, 187500.0, -83866.98619925811, 0.012, -0.008, 0.984, 192.0, 0.0, 0.0, 0.0, 0.0, 0.0, 0.0, 0.0, 0.0, 0.0, 1.7172378760368865E9, 0.0, 2024-06-01 03:31:16.036
51.0, 187500.0, -39672.80413780262, 187500.0, 187500.0, 187500.0, 187500.0, 187500.0, -83900.04442930751, 0.012, -0.008, 0.984, 192.0, 0.0, 0.0, 0.0, 0.0, 0.0, 0.0, 0.0, 0.0, 0.0, 1.717237876036899E9, 0.0, 2024-06-01 03:31:16.036
52.0, 187500.0, -39585.11824430445, 187500.0, 187500.0, 187500.0, 187500.0, 187500.0, -83812.09031487588, 0.012, -0.008, 0.984, 192.0, 0.0, 0.0, 0.0, 0.0, 0.0, 0.0, 0.0, 0.0, 0.0, 1.7172378760369115E9, 0.0, 2024-06-01 03:31:16.036
53.0, 187500.0, -39516.16311265983, 187500.0, 187500.0, 187500.0, 187500.0, 187500.0, -83757.70852061613, 0.012, -0.008, 0.984, 192.0, 0.0, 0.0, 0.0, 0.0, 0.0, 0.0, 0.0, 0.0, 0.0, 1.717237876036924E9, 0.0, 2024-06-01 03:31:16.036
54.0, 187500.0, -39581.7431308917, 187500.0, 187500.0, 187500.0, 187500.0, 187500.0, -83845.55087632548, 0.012, -0.008, 0.984, 192.0, 0.0, 0.0, 0.0, 0.0, 0.0, 0.0, 0.0, 0.0, 0.0, 1.7172378760369372E9, 0.0, 2024-06-01 03:31:16.036
55.0, 187500.0, -39649.5583235691, 187500.0, 187500.0, 187500.0, 187500.0, 187500.0, -83893.51771992657, 0.012, -0.008, 0.984, 192.0, 0.0, 0.0, 0.0, 0.0, 0.0, 0.0, 0.0, 0.0, 0.0, 1.7172378760369496E9, 0.0, 2024-06-01 03:31:16.036
56.0, 187500.0, -39588.02397108364, 187500.0, 187500.0, 187500.0, 187500.0, 187500.0, -83806.6811927177, 0.012, -0.008, 0.984, 192.0, 0.0, 0.0, 0.0, 0.0, 0.0, 0.0, 0.0, 0.0, 0.0, 1.7172378760369625E9, 0.0, 2024-06-01 03:31:16.036
57.0, 187500.0, -39499.01932466261, 187500.0, 187500.0, 187500.0, 187500.0, 187500.0, -83749.90776180122, 0.014, -0.008, 0.978, 192.0, 0.0, 112.0, 255.0, 192.0, 30.0, 144.0, 0.0, 0.0, 0.0, 1.7172378760369756E9, 0.0, 2024-06-01 03:31:16.036
58.0, 187500.0, -39529.261234910635, 187500.0, 187500.0, 187500.0, 187500.0, 187500.0, -83809.00577414106, 0.014, -0.008, 0.978, 192.0, 0.0, 0.0, 0.0, 0.0, 0.0, 0.0, 0.0, 0.0, 0.0, 1.7172378760369887E9, 0.0, 2024-06-01 03:31:16.036
59.0, 187500.0, -39622.69152673382, 187500.0, 187500.0, 187500.0, 187500.0, 187500.0, -83883.70530411068, 0.014, -0.008, 0.978, 192.0, 0.0, 0.0, 0.0, 0.0, 0.0, 0.0, 0.0, 0.0, 0.0, 1.7172378760370011E9, 0.0, 2024-06-01 03:31:16.037
60.0, 187500.0, -39594.26010778667, 187500.0, 187500.0, 187500.0, 187500.0, 187500.0, -83805.51890200602, 0.014, -0.008, 0.978, 192.0, 0.0, 0.0, 0.0, 0.0, 0.0, 0.0, 0.0, 0.0, 0.0, 1.717237876037014E9, 0.0, 2024-06-01 03:31:16.037
61.0, 187500.0, -39494.7724932161, 187500.0, 187500.0, 187500.0, 187500.0, 187500.0, -83722.72804054357, 0.014, -0.008, 0.978, 192.0, 0.0, 0.0, 0.0, 0.0, 0.0, 0.0, 0.0, 0.0, 0.0, 1.7172378760370514E9, 0.0, 2024-06-01 03:31:16.037
62.0, 187500.0, -39503.28850785357, 187500.0, 187500.0, 187500.0, 187500.0, 187500.0, -83790.29736403195, 0.014, -0.008, 0.978, 192.0, 0.0, 0.0, 0.0, 0.0, 0.0, 0.0, 0.0, 0.0, 0.0, 1.7172378760370643E9, 0.0, 2024-06-01 03:31:16.037
63.0, 187500.0, -39605.86066315897, 187500.0, 187500.0, 187500.0, 187500.0, 187500.0, -83895.17174901626, 0.014, -0.008, 0.978, 192.0, 0.0, 0.0, 0.0, 0.0, 0.0, 0.0, 0.0, 0.0, 0.0, 1.717237876037077E9, 0.0, 2024-06-01 03:31:16.037
64.0, 187500.0, -39604.22898581374, 187500.0, 187500.0, 187500.0, 187500.0, 187500.0, -83841.41580360125, 0.014, -0.008, 0.978, 192.0, 0.0, 0.0, 0.0, 0.0, 0.0, 0.0, 0.0, 0.0, 0.0, 1.7172378760370896E9, 0.0, 2024-06-01 03:31:16.037
65.0, 187500.0, -39502.26032760863, 187500.0, 187500.0, 187500.0, 187500.0, 187500.0, -83736.9661017616, 0.014, -0.008, 0.978, 192.0, 0.0, 0.0, 0.0, 0.0, 0.0, 0.0, 0.0, 0.0, 0.0, 1.717237876037104E9, 0.0, 2024-06-01 03:31:16.037
66.0, 187500.0, -39494.07958913798, 187500.0, 187500.0, 187500.0, 187500.0, 187500.0, -83775.63461966928, 0.014, -0.008, 0.978, 192.0, 0.0, 0.0, 0.0, 0.0, 0.0, 0.0, 0.0, 0.0, 0.0, 1.7172378760371172E9, 0.0, 2024-06-01 03:31:16.037
67.0, 187500.0, -39576.64693315589, 187500.0, 187500.0, 187500.0, 187500.0, 187500.0, -83870.22720220414, 0.014, -0.006, 0.982, 192.0, 0.0, 112.0, 255.0, 208.0, 30.0, 176.0, 0.0, 0.0, 0.0, 1.7172378760371299E9, 0.0, 2024-06-01 03:31:16.037
68.0, 187500.0, -39589.27566877314, 187500.0, 187500.0, 187500.0, 187500.0, 187500.0, -83831.64809127428, 0.014, -0.006, 0.982, 192.0, 0.0, 0.0, 0.0, 0.0, 0.0, 0.0, 0.0, 0.0, 0.0, 1.7172378760371428E9, 0.0, 2024-06-01 03:31:16.037
69.0, 187500.0, -39478.14279534135, 187500.0, 187500.0, 187500.0, 187500.0, 187500.0, -83730.48409586956, 0.014, -0.006, 0.982, 192.0, 0.0, 0.0, 0.0, 0.0, 0.0, 0.0, 0.0, 0.0, 0.0, 1.7172378760371556E9, 0.0, 2024-06-01 03:31:16.037
70.0, 187500.0, -39460.820193388485, 187500.0, 187500.0, 187500.0, 187500.0, 187500.0, -83737.54724711743, 0.014, -0.006, 0.982, 192.0, 0.0, 0.0, 0.0, 0.0, 0.0, 0.0, 0.0, 0.0, 0.0, 1.717237876037168E9, 0.0, 2024-06-01 03:31:16.037
71.0, 187500.0, -39560.21840098124, 187500.0, 187500.0, 187500.0, 187500.0, 187500.0, -83828.1835708837, 0.014, -0.006, 0.982, 192.0, 0.0, 0.0, 0.0, 0.0, 0.0, 0.0, 0.0, 0.0, 0.0, 1.7172378760371804E9, 0.0, 2024-06-01 03:31:16.037
72.0, 187500.0, -39590.728532162735, 187500.0, 187500.0, 187500.0, 187500.0, 187500.0, -83838.8453529889, 0.014, -0.006, 0.982, 192.0, 0.0, 0.0, 0.0, 0.0, 0.0, 0.0, 0.0, 0.0, 0.0, 1.7172378760371928E9, 0.0, 2024-06-01 03:31:16.037
73.0, 187500.0, -39498.43817930677, 187500.0, 187500.0, 187500.0, 187500.0, 187500.0, -83752.25469496903, 0.014, -0.006, 0.982, 192.0, 0.0, 0.0, 0.0, 0.0, 0.0, 0.0, 0.0, 0.0, 0.0, 1.7172378760372057E9, 0.0, 2024-06-01 03:31:16.037
74.0, 187500.0, -39451.92419909527, 187500.0, 187500.0, 187500.0, 187500.0, 187500.0, -83738.44131689565, 0.014, -0.006, 0.982, 192.0, 0.0, 0.0, 0.0, 0.0, 0.0, 0.0, 0.0, 0.0, 0.0, 1.717237876037218E9, 0.0, 2024-06-01 03:31:16.037
75.0, 187500.0, -39528.59068257698, 187500.0, 187500.0, 187500.0, 187500.0, 187500.0, -83824.69669874868, 0.014, -0.006, 0.982, 192.0, 0.0, 0.0, 0.0, 0.0, 0.0, 0.0, 0.0, 0.0, 0.0, 1.7172378760372305E9, 0.0, 2024-06-01 03:31:16.037
76.0, 187500.0, -39585.967610593754, 187500.0, 187500.0, 187500.0, 187500.0, 187500.0, -83849.10480369387, 0.014, -0.006, 0.982, 192.0, 0.0, 0.0, 0.0, 0.0, 0.0, 0.0, 0.0, 0.0, 0.0, 1.717237876037243E9, 0.0, 2024-06-01 03:31:16.037
77.0, 187500.0, -39505.59073753247, 187500.0, 187500.0, 187500.0, 187500.0, 187500.0, -83763.2741049855, 0.02, -0.004, 0.986, 192.0, 0.0, 160.0, 255.0, 224.0, 30.0, 208.0, 0.0, 0.0, 0.0, 1.717237876037264E9, 0.0, 2024-06-01 03:31:16.037
78.0, 187500.0, -39442.69292863523, 187500.0, 187500.0, 187500.0, 187500.0, 187500.0, -83718.59296781934, 0.02, -0.004, 0.986, 192.0, 0.0, 0.0, 0.0, 0.0, 0.0, 0.0, 0.0, 0.0, 0.0, 1.7172378760372777E9, 0.0, 2024-06-01 03:31:16.037
79.0, 187500.0, -39506.685973010775, 187500.0, 187500.0, 187500.0, 187500.0, 187500.0, -83811.12918986431, 0.02, -0.004, 0.986, 192.0, 0.0, 0.0, 0.0, 0.0, 0.0, 0.0, 0.0, 0.0, 0.0, 1.71723787603729E9, 0.0, 2024-06-01 03:31:16.037
80.0, 187500.0, -39583.374808236935, 187500.0, 187500.0, 187500.0, 187500.0, 187500.0, -83868.23789694761, 0.02, -0.004, 0.986, 192.0, 0.0, 0.0, 0.0, 0.0, 0.0, 0.0, 0.0, 0.0, 0.0, 1.7172378760373025E9, 0.0, 2024-06-01 03:31:16.037
81.0, 187500.0, -39517.90654872734, 187500.0, 187500.0, 187500.0, 187500.0, 187500.0, -83776.46163421412, 0.02, -0.004, 0.986, 192.0, 0.0, 0.0, 0.0, 0.0, 0.0, 0.0, 0.0, 0.0, 0.0, 1.717237876037315E9, 0.0, 2024-06-01 03:31:16.037
82.0, 187500.0, -39426.80083832751, 187500.0, 187500.0, 187500.0, 187500.0, 187500.0, -83724.49382835554, 0.02, -0.004, 0.986, 192.0, 0.0, 0.0, 0.0, 0.0, 0.0, 0.0, 0.0, 0.0, 0.0, 1.7172378760373273E9, 0.0, 2024-06-01 03:31:16.037
83.0, 187500.0, -39476.689931951754, 187500.0, 187500.0, 187500.0, 187500.0, 187500.0, -83788.71039017563, 0.02, -0.004, 0.986, 192.0, 0.0, 0.0, 0.0, 0.0, 0.0, 0.0, 0.0, 0.0, 0.0, 1.7172378760373397E9, 0.0, 2024-06-01 03:31:16.037
84.0, 187500.0, -39568.153270262876, 187500.0, 187500.0, 187500.0, 187500.0, 187500.0, -83844.85797224737, 0.02, -0.004, 0.986, 192.0, 0.0, 0.0, 0.0, 0.0, 0.0, 0.0, 0.0, 0.0, 0.0, 1.717237876037352E9, 0.0, 2024-06-01 03:31:16.037
85.0, 187500.0, -39542.06878448353, 187500.0, 187500.0, 187500.0, 187500.0, 187500.0, -83807.57526249591, 0.02, -0.004, 0.986, 192.0, 0.0, 0.0, 0.0, 0.0, 0.0, 0.0, 0.0, 0.0, 0.0, 1.7172378760373645E9, 0.0, 2024-06-01 03:31:16.037
86.0, 187500.0, -39443.11761177988, 187500.0, 187500.0, 187500.0, 187500.0, 187500.0, -83736.83199129486, 0.02, -0.004, 0.986, 192.0, 0.0, 0.0, 0.0, 0.0, 0.0, 0.0, 0.0, 0.0, 0.0, 1.717237876037377E9, 0.0, 2024-06-01 03:31:16.037
87.0, 187500.0, -39473.67244645029, 187500.0, 187500.0, 187500.0, 187500.0, 187500.0, -83778.47329121511, 0.018000000000000002, -0.006, 0.982, 192.0, 0.0, 144.0, 255.0, 208.0, 30.0, 176.0, 0.0, 0.0, 0.0, 1.717237876037392E9, 0.0, 2024-06-01 03:31:16.037
88.0, 187500.0, -39563.817031838546, 187500.0, 187500.0, 187500.0, 187500.0, 187500.0, -83857.10672820888, 0.018000000000000002, -0.006, 0.982, 192.0, 0.0, 0.0, 0.0, 0.0, 0.0, 0.0, 0.0, 0.0, 0.0, 1.717237876037405E9, 0.0, 2024-06-01 03:31:16.037
89.0, 187500.0, -39541.19706644977, 187500.0, 187500.0, 187500.0, 187500.0, 187500.0, -83812.87262593182, 0.018000000000000002, -0.006, 0.982, 192.0, 0.0, 0.0, 0.0, 0.0, 0.0, 0.0, 0.0, 0.0, 0.0, 1.7172378760374177E9, 0.0, 2024-06-01 03:31:16.037
90.0, 187500.0, -39446.9621118262, 187500.0, 187500.0, 187500.0, 187500.0, 187500.0, -83725.8125812784, 0.018000000000000002, -0.006, 0.982, 192.0, 0.0, 0.0, 0.0, 0.0, 0.0, 0.0, 0.0, 0.0, 0.0, 1.71723787603743E9, 0.0, 2024-06-01 03:31:16.037
91.0, 187500.0, -39451.47716420617, 187500.0, 187500.0, 187500.0, 187500.0, 187500.0, -83767.69975038765, 0.018000000000000002, -0.006, 0.982, 192.0, 0.0, 0.0, 0.0, 0.0, 0.0, 0.0, 0.0, 0.0, 0.0, 1.7172378760374424E9, 0.0, 2024-06-01 03:31:16.037
92.0, 187500.0, -39542.627578094914, 187500.0, 187500.0, 187500.0, 187500.0, 187500.0, -83858.13490845382, 0.018000000000000002, -0.006, 0.982, 192.0, 0.0, 0.0, 0.0, 0.0, 0.0, 0.0, 0.0, 0.0, 0.0, 1.7172378760374625E9, 0.0, 2024-06-01 03:31:16.037
93.0, 187500.0, -39543.85692403995, 187500.0, 187500.0, 187500.0, 187500.0, 187500.0, -83841.30404487897, 0.018000000000000002, -0.006, 0.982, 192.0, 0.0, 0.0, 0.0, 0.0, 0.0, 0.0, 0.0, 0.0, 0.0, 1.717237876037475E9, 0.0, 2024-06-01 03:31:16.037
94.0, 187500.0, -39462.18364980026, 187500.0, 187500.0, 187500.0, 187500.0, 187500.0, -83746.6667588552, 0.018000000000000002, -0.006, 0.982, 192.0, 0.0, 0.0, 0.0, 0.0, 0.0, 0.0, 0.0, 0.0, 0.0, 1.7172378760374875E9, 0.0, 2024-06-01 03:31:16.037
95.0, 187500.0, -39449.018472316086, 187500.0, 187500.0, 187500.0, 187500.0, 187500.0, -83741.63761635276, 0.018000000000000002, -0.006, 0.982, 192.0, 0.0, 0.0, 0.0, 0.0, 0.0, 0.0, 0.0, 0.0, 0.0, 1.7172378760375E9, 0.0, 2024-06-01 03:31:16.037
96.0, 187500.0, -39526.73548778719, 187500.0, 187500.0, 187500.0, 187500.0, 187500.0, -83848.36719612684, 0.018000000000000002, -0.006, 0.982, 192.0, 0.0, 0.0, 0.0, 0.0, 0.0, 0.0, 0.0, 0.0, 0.0, 1.7172378760375123E9, 0.0, 2024-06-01 03:31:16.037
97.0, 187500.0, -39564.77815685012, 187500.0, 187500.0, 187500.0, 187500.0, 187500.0, -83857.39730088679, 0.018000000000000002, -0.008, 0.984, 192.0, 0.0, 144.0, 255.0, 192.0, 30.0, 192.0, 0.0, 0.0, 0.0, 1.7172378760375247E9, 0.0, 2024-06-01 03:31:16.037
98.0, 187500.0, -39468.24097254765, 187500.0, 187500.0, 187500.0, 187500.0, 187500.0, -83743.78338382047, 0.018000000000000002, -0.008, 0.984, 192.0, 0.0, 0.0, 0.0, 0.0, 0.0, 0.0, 0.0, 0.0, 0.0, 1.717237876037538E9, 0.0, 2024-06-01 03:31:16.037
99.0, 187500.0, -39427.71725985018, 187500.0, 187500.0, 187500.0, 187500.0, 187500.0, -83742.10700298632, 0.018000000000000002, -0.008, 0.984, 192.0, 0.0, 0.0, 0.0, 0.0, 0.0, 0.0, 0.0, 0.0, 0.0, 1.7172378760375504E9, 0.0, 2024-06-01 03:31:16.037
100.0, 187500.0, -39518.711211527734, 187500.0, 187500.0, 187500.0, 187500.0, 187500.0, -83837.5936552994, 0.018000000000000002, -0.008, 0.984, 192.0, 0.0, 0.0, 0.0, 0.0, 0.0, 0.0, 0.0, 0.0, 0.0, 1.7172378760375628E9, 0.0, 2024-06-01 03:31:16.037
101.0, 187500.0, -39566.54394466209, 187500.0, 187500.0, 187500.0, 187500.0, 187500.0, -83854.11159445187, 0.018000000000000002, -0.008, 0.984, 192.0, 0.0, 0.0, 0.0, 0.0, 0.0, 0.0, 0.0, 0.0, 0.0, 1.7172378760375752E9, 0.0, 2024-06-01 03:31:16.037
102.0, 187500.0, -39478.90275465283, 187500.0, 187500.0, 187500.0, 187500.0, 187500.0, -83778.71916040411, 0.018000000000000002, -0.008, 0.984, 192.0, 0.0, 0.0, 0.0, 0.0, 0.0, 0.0, 0.0, 0.0, 0.0, 1.7172378760375876E9, 0.0, 2024-06-01 03:31:16.037
103.0, 187500.0, -39423.53748363704, 187500.0, 187500.0, 187500.0, 187500.0, 187500.0, -83746.75616583302, 0.018000000000000002, -0.008, 0.984, 192.0, 0.0, 0.0, 0.0, 0.0, 0.0, 0.0, 0.0, 0.0, 0.0, 1.7172378760376E9, 0.0, 2024-06-01 03:31:16.037
104.0, 187500.0, -39489.34101931346, 187500.0, 187500.0, 187500.0, 187500.0, 187500.0, -83824.71905049314, 0.018000000000000002, -0.008, 0.984, 192.0, 0.0, 0.0, 0.0, 0.0, 0.0, 0.0, 0.0, 0.0, 0.0, 1.717237876037613E9, 0.0, 2024-06-01 03:31:16.037
105.0, 187500.0, -39555.85981081246, 187500.0, 187500.0, 187500.0, 187500.0, 187500.0, -83880.84428082041, 0.018000000000000002, -0.008, 0.984, 192.0, 0.0, 0.0, 0.0, 0.0, 0.0, 0.0, 0.0, 0.0, 0.0, 1.7172378760376253E9, 0.0, 2024-06-01 03:31:16.037
106.0, 187500.0, -39500.42748456329, 187500.0, 187500.0, 187500.0, 187500.0, 187500.0, -83804.87070141682, 0.018000000000000002, -0.008, 0.984, 192.0, 0.0, 0.0, 0.0, 0.0, 0.0, 0.0, 0.0, 0.0, 0.0, 1.7172378760376377E9, 0.0, 2024-06-01 03:31:16.037
107.0, 187500.0, -39418.888320790335, 187500.0, 187500.0, 187500.0, 187500.0, 187500.0, -83727.265444668, 0.016, -0.002, 0.98, 192.0, 0.0, 128.0, 255.0, 240.0, 30.0, 160.0, 0.0, 0.0, 0.0, 1.717237876037658E9, 0.0, 2024-06-01 03:31:16.037
108.0, 187500.0, -39453.37706248487, 187500.0, 187500.0, 187500.0, 187500.0, 187500.0, -83792.3760762663, 0.016, -0.002, 0.98, 192.0, 0.0, 0.0, 0.0, 0.0, 0.0, 0.0, 0.0, 0.0, 0.0, 1.7172378760376723E9, 0.0, 2024-06-01 03:31:16.037
109.0, 187500.0, -39544.75099381817, 187500.0, 187500.0, 187500.0, 187500.0, 187500.0, -83873.93759178372, 0.016, -0.002, 0.98, 192.0, 0.0, 0.0, 0.0, 0.0, 0.0, 0.0, 0.0, 0.0, 0.0, 1.7172378760376852E9, 0.0, 2024-06-01 03:31:16.037
110.0, 187500.0, -39515.716077770725, 187500.0, 187500.0, 187500.0, 187500.0, 187500.0, -83811.03978288648, 0.016, -0.002, 0.98, 192.0, 0.0, 0.0, 0.0, 0.0, 0.0, 0.0, 0.0, 0.0, 0.0, 1.7172378760376976E9, 0.0, 2024-06-01 03:31:16.037
111.0, 187500.0, -39412.56277710948, 187500.0, 187500.0, 187500.0, 187500.0, 187500.0, -83745.92915128818, 0.016, -0.002, 0.98, 192.0, 0.0, 0.0, 0.0, 0.0, 0.0, 0.0, 0.0, 0.0, 0.0, 1.71723787603771E9, 0.0, 2024-06-01 03:31:16.037
112.0, 187500.0, -39446.850353103924, 187500.0, 187500.0, 187500.0, 187500.0, 187500.0, -83816.51596027803, 0.016, -0.002, 0.98, 192.0, 0.0, 0.0, 0.0, 0.0, 0.0, 0.0, 0.0, 0.0, 0.0, 1.7172378760377226E9, 0.0, 2024-06-01 03:31:16.037
113.0, 187500.0, -39557.31267420205, 187500.0, 187500.0, 187500.0, 187500.0, 187500.0, -83901.67610665275, 0.016, -0.002, 0.98, 192.0, 0.0, 0.0, 0.0, 0.0, 0.0, 0.0, 0.0, 0.0, 0.0, 1.7172378760377352E9, 0.0, 2024-06-01 03:31:16.037
114.0, 187500.0, -39542.40406065036, 187500.0, 187500.0, 187500.0, 187500.0, 187500.0, -83846.66846354824, 0.016, -0.002, 0.98, 192.0, 0.0, 0.0, 0.0, 0.0, 0.0, 0.0, 0.0, 0.0, 0.0, 1.717237876037748E9, 0.0, 2024-06-01 03:31:16.037
115.0, 187500.0, -39432.23231223015, 187500.0, 187500.0, 187500.0, 187500.0, 187500.0, -83745.03508150997, 0.016, -0.002, 0.98, 192.0, 0.0, 0.0, 0.0, 0.0, 0.0, 0.0, 0.0, 0.0, 0.0, 1.7172378760377605E9, 0.0, 2024-06-01 03:31:16.037
116.0, 187500.0, -39424.09627724842, 187500.0, 187500.0, 187500.0, 187500.0, 187500.0, -83780.46259647163, 0.016, -0.002, 0.98, 192.0, 0.0, 0.0, 0.0, 0.0, 0.0, 0.0, 0.0, 0.0, 0.0, 1.717237876037773E9, 0.0, 2024-06-01 03:31:16.037
117.0, 187500.0, -39508.58587128948, 187500.0, 187500.0, 187500.0, 187500.0, 187500.0, -83871.41184466027, 0.02, 0.0, 0.978, 192.0, 0.0, 160.0, 0.0, 0.0, 30.0, 144.0, 0.0, 0.0, 0.0, 1.7172378760377855E9, 0.0, 2024-06-01 03:31:16.037
118.0, 187500.0, -39532.569293090026, 187500.0, 187500.0, 187500.0, 187500.0, 187500.0, -83852.3905101288, 0.02, 0.0, 0.978, 192.0, 0.0, 0.0, 0.0, 0.0, 0.0, 0.0, 0.0, 0.0, 0.0, 1.7172378760377982E9, 0.0, 2024-06-01 03:31:16.037
119.0, 187500.0, -39430.198303484714, 187500.0, 187500.0, 187500.0, 187500.0, 187500.0, -83763.63173289679, 0.02, 0.0, 0.978, 192.0, 0.0, 0.0, 0.0, 0.0, 0.0, 0.0, 0.0, 0.0, 0.0, 1.7172378760378103E9, 0.0, 2024-06-01 03:31:16.037
120.0, 187500.0, -39409.00884974108, 187500.0, 187500.0, 187500.0, 187500.0, 187500.0, -83791.81728265493, 0.02, 0.0, 0.978, 192.0, 0.0, 0.0, 0.0, 0.0, 0.0, 0.0, 0.0, 0.0, 0.0, 1.7172378760378227E9, 0.0, 2024-06-01 03:31:16.037
121.0, 187500.0, -39520.43229585079, 187500.0, 187500.0, 187500.0, 187500.0, 187500.0, -83896.78107461704, 0.02, 0.0, 0.978, 192.0, 0.0, 0.0, 0.0, 0.0, 0.0, 0.0, 0.0, 0.0, 0.0, 1.7172378764244344E9, 0.0, 2024-06-01 03:31:16.424
122.0, 187500.0, -39570.16492726385, 187500.0, 187500.0, 187500.0, 187500.0, 187500.0, -83897.0492955505, 0.02, 0.0, 0.978, 192.0, 0.0, 0.0, 0.0, 0.0, 0.0, 0.0, 0.0, 0.0, 0.0, 1.7172378764245863E9, 0.0, 2024-06-01 03:31:16.424
123.0, 187500.0, -39476.555821485024, 187500.0, 187500.0, 187500.0, 187500.0, 187500.0, -83796.44409375716, 0.02, 0.0, 0.978, 192.0, 0.0, 0.0, 0.0, 0.0, 0.0, 0.0, 0.0, 0.0, 0.0, 1.7172378764246037E9, 0.0, 2024-06-01 03:31:16.424
124.0, 187500.0, -39425.392678426826, 187500.0, 187500.0, 187500.0, 187500.0, 187500.0, -83779.74734064906, 0.02, 0.0, 0.978, 192.0, 0.0, 0.0, 0.0, 0.0, 0.0, 0.0, 0.0, 0.0, 0.0, 1.7172378764246185E9, 0.0, 2024-06-01 03:31:16.424
125.0, 187500.0, -39502.841472964465, 187500.0, 187500.0, 187500.0, 187500.0, 187500.0, -83867.9920277586, 0.02, 0.0, 0.978, 192.0, 0.0, 0.0, 0.0, 0.0, 0.0, 0.0, 0.0, 0.0, 0.0, 1.717237876424633E9, 0.0, 2024-06-01 03:31:16.424
126.0, 187500.0, -39561.60420913747, 187500.0, 187500.0, 187500.0, 187500.0, 187500.0, -83901.22907176365, 0.02, 0.0, 0.978, 192.0, 0.0, 0.0, 0.0, 0.0, 0.0, 0.0, 0.0, 0.0, 0.0, 1.7172378764246469E9, 0.0, 2024-06-01 03:31:16.424
127.0, 187500.0, -39489.9221646693, 187500.0, 187500.0, 187500.0, 187500.0, 187500.0, -83816.71712597813, 0.02, 0.0, 0.98, 192.0, 0.0, 160.0, 0.0, 0.0, 30.0, 160.0, 0.0, 0.0, 0.0, 1.7172378764246607E9, 0.0, 2024-06-01 03:31:16.424
128.0, 187500.0, -39415.669669588766, 187500.0, 187500.0, 187500.0, 187500.0, 187500.0, -83776.66279991422, 0.02, 0.0, 0.98, 192.0, 0.0, 0.0, 0.0, 0.0, 0.0, 0.0, 0.0, 0.0, 0.0, 1.7172378764246752E9, 0.0, 2024-06-01 03:31:16.424
129.0, 187500.0, -39477.33813254096, 187500.0, 187500.0, 187500.0, 187500.0, 187500.0, -83865.2427631906, 0.02, 0.0, 0.98, 192.0, 0.0, 0.0, 0.0, 0.0, 0.0, 0.0, 0.0, 0.0, 0.0, 1.7172378764246888E9, 0.0, 2024-06-01 03:31:16.424
130.0, 187500.0, -39545.846229296476, 187500.0, 187500.0, 187500.0, 187500.0, 187500.0, -83922.84320865193, 0.02, 0.0, 0.98, 192.0, 0.0, 0.0, 0.0, 0.0, 0.0, 0.0, 0.0, 0.0, 0.0, 1.7172378764247024E9, 0.0, 2024-06-01 03:31:16.424
131.0, 187500.0, -39500.896871196855, 187500.0, 187500.0, 187500.0, 187500.0, 187500.0, -83841.88519023481, 0.02, 0.0, 0.98, 192.0, 0.0, 0.0, 0.0, 0.0, 0.0, 0.0, 0.0, 0.0, 0.0, 1.717237876424716E9, 0.0, 2024-06-01 03:31:16.424
132.0, 187500.0, -39434.78041109806, 187500.0, 187500.0, 187500.0, 187500.0, 187500.0, -83783.77065465102, 0.02, 0.0, 0.98, 192.0, 0.0, 0.0, 0.0, 0.0, 0.0, 0.0, 0.0, 0.0, 0.0, 1.717237876424729E9, 0.0, 2024-06-01 03:31:16.424
133.0, 187500.0, -39467.19044055825, 187500.0, 187500.0, 187500.0, 187500.0, 187500.0, -83854.22335317414, 0.02, 0.0, 0.98, 192.0, 0.0, 0.0, 0.0, 0.0, 0.0, 0.0, 0.0, 0.0, 0.0, 1.7172378764247427E9, 0.0, 2024-06-01 03:31:16.424
134.0, 187500.0, -39549.9365985318, 187500.0, 187500.0, 187500.0, 187500.0, 187500.0, -83921.88208364035, 0.02, 0.0, 0.98, 192.0, 0.0, 0.0, 0.0, 0.0, 0.0, 0.0, 0.0, 0.0, 0.0, 1.7172378764247563E9, 0.0, 2024-06-01 03:31:16.424
135.0, 187500.0, -39521.32636562901, 187500.0, 187500.0, 187500.0, 187500.0, 187500.0, -83852.97165548464, 0.02, 0.0, 0.98, 192.0, 0.0, 0.0, 0.0, 0.0, 0.0, 0.0, 0.0, 0.0, 0.0, 1.71723787642477E9, 0.0, 2024-06-01 03:31:16.424
136.0, 187500.0, -39421.056440002496, 187500.0, 187500.0, 187500.0, 187500.0, 187500.0, -83760.5695439064, 0.02, 0.0, 0.98, 192.0, 0.0, 0.0, 0.0, 0.0, 0.0, 0.0, 0.0, 0.0, 0.0, 1.7172378764247835E9, 0.0, 2024-06-01 03:31:16.424
137.0, 187500.0, -39441.7094518792, 187500.0, 187500.0, 187500.0, 187500.0, 187500.0, -83823.66851850373, 0.018000000000000002, -0.002, 0.98, 192.0, 0.0, 144.0, 255.0, 240.0, 30.0, 160.0, 0.0, 0.0, 0.0, 1.7172378764248097E9, 0.0, 2024-06-01 03:31:16.424
138.0, 187500.0, -39539.87831352691, 187500.0, 187500.0, 187500.0, 187500.0, 187500.0, -83912.85197888041, 0.018000000000000002, -0.002, 0.98, 192.0, 0.0, 0.0, 0.0, 0.0, 0.0, 0.0, 0.0, 0.0, 0.0, 1.7172378764248245E9, 0.0, 2024-06-01 03:31:16.424
139.0, 187500.0, -39537.665490825835, 187500.0, 187500.0, 187500.0, 187500.0, 187500.0, -83880.53135639803, 0.018000000000000002, -0.002, 0.98, 192.0, 0.0, 0.0, 0.0, 0.0, 0.0, 0.0, 0.0, 0.0, 0.0, 1.717237876424838E9, 0.0, 2024-06-01 03:31:16.424
140.0, 187500.0, -39438.110821021895, 187500.0, 187500.0, 187500.0, 187500.0, 187500.0, -83798.32164029141, 0.018000000000000002, -0.002, 0.98, 192.0, 0.0, 0.0, 0.0, 0.0, 0.0, 0.0, 0.0, 0.0, 0.0, 1.7172378764248512E9, 0.0, 2024-06-01 03:31:16.424
141.0, 187500.0, -39427.404335427804, 187500.0, 187500.0, 187500.0, 187500.0, 187500.0, -83827.2895011055, 0.018000000000000002, -0.002, 0.98, 192.0, 0.0, 0.0, 0.0, 0.0, 0.0, 0.0, 0.0, 0.0, 0.0, 1.7172378764248643E9, 0.0, 2024-06-01 03:31:16.424
142.0, 187500.0, -39517.37010686041, 187500.0, 187500.0, 187500.0, 187500.0, 187500.0, -83920.18335106174, 0.018000000000000002, -0.002, 0.98, 192.0, 0.0, 0.0, 0.0, 0.0, 0.0, 0.0, 0.0, 0.0, 0.0, 1.7172378764248776E9, 0.0, 2024-06-01 03:31:16.424
143.0, 187500.0, -39538.64896758187, 187500.0, 187500.0, 187500.0, 187500.0, 187500.0, -83893.4953681821, 0.018000000000000002, -0.002, 0.98, 192.0, 0.0, 0.0, 0.0, 0.0, 0.0, 0.0, 0.0, 0.0, 0.0, 1.7172378764248917E9, 0.0, 2024-06-01 03:31:16.424
144.0, 187500.0, -39435.83094308746, 187500.0, 187500.0, 187500.0, 187500.0, 187500.0, -83785.33527676288, 0.018000000000000002, -0.002, 0.98, 192.0, 0.0, 0.0, 0.0, 0.0, 0.0, 0.0, 0.0, 0.0, 0.0, 1.717237876424905E9, 0.0, 2024-06-01 03:31:16.424
145.0, 187500.0, -39407.57833809595, 187500.0, 187500.0, 187500.0, 187500.0, 187500.0, -83793.13603557779, 0.018000000000000002, -0.002, 0.98, 192.0, 0.0, 0.0, 0.0, 0.0, 0.0, 0.0, 0.0, 0.0, 0.0, 1.7172378764249184E9, 0.0, 2024-06-01 03:31:16.424
146.0, 187500.0, -39500.82981596349, 187500.0, 187500.0, 187500.0, 187500.0, 187500.0, -83894.61295540488, 0.018000000000000002, -0.002, 0.98, 192.0, 0.0, 0.0, 0.0, 0.0, 0.0, 0.0, 0.0, 0.0, 0.0, 1.7172378764249315E9, 0.0, 2024-06-01 03:31:16.424
147.0, 187500.0, -39545.7344705742, 187500.0, 187500.0, 187500.0, 187500.0, 187500.0, -83909.99095559012, 0.016, -0.002, 0.976, 192.0, 0.0, 128.0, 255.0, 240.0, 30.0, 128.0, 0.0, 0.0, 0.0, 1.7172378764249449E9, 0.0, 2024-06-01 03:31:16.424
148.0, 187500.0, -39459.6131991879, 187500.0, 187500.0, 187500.0, 187500.0, 187500.0, -83813.78904745448, 0.016, -0.002, 0.976, 192.0, 0.0, 0.0, 0.0, 0.0, 0.0, 0.0, 0.0, 0.0, 0.0, 1.717237876424959E9, 0.0, 2024-06-01 03:31:16.424
149.0, 187500.0, -39409.5005881191, 187500.0, 187500.0, 187500.0, 187500.0, 187500.0, -83796.84642515736, 0.016, -0.002, 0.976, 192.0, 0.0, 0.0, 0.0, 0.0, 0.0, 0.0, 0.0, 0.0, 0.0, 1.7172378764249723E9, 0.0, 2024-06-01 03:31:16.424
150.0, 187500.0, -39481.7190744542, 187500.0, 187500.0, 187500.0, 187500.0, 187500.0, -83900.93849908574, 0.016, -0.002, 0.976, 192.0, 0.0, 0.0, 0.0, 0.0, 0.0, 0.0, 0.0, 0.0, 0.0, 1.7172378764249856E9, 0.0, 2024-06-01 03:31:16.424
151.0, 187500.0, -39547.522610130625, 187500.0, 187500.0, 187500.0, 187500.0, 187500.0, -83927.67118545428, 0.016, -0.002, 0.976, 192.0, 0.0, 0.0, 0.0, 0.0, 0.0, 0.0, 0.0, 0.0, 0.0, 1.7172378764249992E9, 0.0, 2024-06-01 03:31:16.424
152.0, 187500.0, -39473.538335983554, 187500.0, 187500.0, 187500.0, 187500.0, 187500.0, -83831.4916290631, 0.016, -0.002, 0.976, 192.0, 0.0, 0.0, 0.0, 0.0, 0.0, 0.0, 0.0, 0.0, 0.0, 1.717237876425022E9, 0.0, 2024-06-01 03:31:16.425
153.0, 187500.0, -39394.79314026751, 187500.0, 187500.0, 187500.0, 187500.0, 187500.0, -83784.08357907338, 0.016, -0.002, 0.976, 192.0, 0.0, 0.0, 0.0, 0.0, 0.0, 0.0, 0.0, 0.0, 0.0, 1.7172378764250357E9, 0.0, 2024-06-01 03:31:16.425
154.0, 187500.0, -39457.06510032, 187500.0, 187500.0, 187500.0, 187500.0, 187500.0, -83866.36035041336, 0.016, -0.002, 0.976, 192.0, 0.0, 0.0, 0.0, 0.0, 0.0, 0.0, 0.0, 0.0, 0.0, 1.7172378764250488E9, 0.0, 2024-06-01 03:31:16.425
155.0, 187500.0, -39533.55276984606, 187500.0, 187500.0, 187500.0, 187500.0, 187500.0, -83921.90443538481, 0.016, -0.002, 0.976, 192.0, 0.0, 0.0, 0.0, 0.0, 0.0, 0.0, 0.0, 0.0, 0.0, 1.717237876425062E9, 0.0, 2024-06-01 03:31:16.425
156.0, 187500.0, -39483.37310354389, 187500.0, 187500.0, 187500.0, 187500.0, 187500.0, -83839.4935535781, 0.016, -0.002, 0.976, 192.0, 0.0, 0.0, 0.0, 0.0, 0.0, 0.0, 0.0, 0.0, 0.0, 1.7172378764250753E9, 0.0, 2024-06-01 03:31:16.425
157.0, 187500.0, -39402.68330606024, 187500.0, 187500.0, 187500.0, 187500.0, 187500.0, -83782.6754191727, 0.02, 0.0, 0.978, 192.0, 0.0, 160.0, 0.0, 0.0, 30.0, 144.0, 0.0, 0.0, 0.0, 1.7172378764250884E9, 0.0, 2024-06-01 03:31:16.425
158.0, 187500.0, -39441.463582690194, 187500.0, 187500.0, 187500.0, 187500.0, 187500.0, -83867.79086205851, 0.02, 0.0, 0.978, 192.0, 0.0, 0.0, 0.0, 0.0, 0.0, 0.0, 0.0, 0.0, 0.0, 1.717237876425102E9, 0.0, 2024-06-01 03:31:16.425
159.0, 187500.0, -39527.16017093184, 187500.0, 187500.0, 187500.0, 187500.0, 187500.0, -83937.32713905897, 0.02, 0.0, 0.978, 192.0, 0.0, 0.0, 0.0, 0.0, 0.0, 0.0, 0.0, 0.0, 0.0, 1.717237876425115E9, 0.0, 2024-06-01 03:31:16.425
160.0, 187500.0, -39508.45176082275, 187500.0, 187500.0, 187500.0, 187500.0, 187500.0, -83882.94534479921, 0.02, 0.0, 0.978, 192.0, 0.0, 0.0, 0.0, 0.0, 0.0, 0.0, 0.0, 0.0, 0.0, 1.7172378764251285E9, 0.0, 2024-06-01 03:31:16.425
161.0, 187500.0, -39410.88639627533, 187500.0, 187500.0, 187500.0, 187500.0, 187500.0, -83797.78519842449, 0.02, 0.0, 0.978, 192.0, 0.0, 0.0, 0.0, 0.0, 0.0, 0.0, 0.0, 0.0, 0.0, 1.7172378764251418E9, 0.0, 2024-06-01 03:31:16.425
162.0, 187500.0, -39428.14194299483, 187500.0, 187500.0, 187500.0, 187500.0, 187500.0, -83841.46050709016, 0.02, 0.0, 0.978, 192.0, 0.0, 0.0, 0.0, 0.0, 0.0, 0.0, 0.0, 0.0, 0.0, 1.7172378764251547E9, 0.0, 2024-06-01 03:31:16.425
163.0, 187500.0, -39520.14172317287, 187500.0, 187500.0, 187500.0, 187500.0, 187500.0, -83936.76834544759, 0.02, 0.0, 0.978, 192.0, 0.0, 0.0, 0.0, 0.0, 0.0, 0.0, 0.0, 0.0, 0.0, 1.717237876425168E9, 0.0, 2024-06-01 03:31:16.425
164.0, 187500.0, -39520.119371428416, 187500.0, 187500.0, 187500.0, 187500.0, 187500.0, -83905.94528984372, 0.02, 0.0, 0.978, 192.0, 0.0, 0.0, 0.0, 0.0, 0.0, 0.0, 0.0, 0.0, 0.0, 1.7172378764251812E9, 0.0, 2024-06-01 03:31:16.425
165.0, 187500.0, -39427.538445894534, 187500.0, 187500.0, 187500.0, 187500.0, 187500.0, -83802.54611999347, 0.02, 0.0, 0.978, 192.0, 0.0, 0.0, 0.0, 0.0, 0.0, 0.0, 0.0, 0.0, 0.0, 1.7172378764251945E9, 0.0, 2024-06-01 03:31:16.425
166.0, 187500.0, -39423.626890614854, 187500.0, 187500.0, 187500.0, 187500.0, 187500.0, -83821.41099231374, 0.02, 0.0, 0.978, 192.0, 0.0, 0.0, 0.0, 0.0, 0.0, 0.0, 0.0, 0.0, 0.0, 1.717237876425208E9, 0.0, 2024-06-01 03:31:16.425
167.0, 187500.0, -39512.6762405248, 187500.0, 187500.0, 187500.0, 187500.0, 187500.0, -83905.67706891026, 0.02, 0.0, 0.98, 192.0, 0.0, 160.0, 0.0, 0.0, 30.0, 160.0, 0.0, 0.0, 0.0, 1.717237876425221E9, 0.0, 2024-06-01 03:31:16.425
168.0, 187500.0, -39534.87152276892, 187500.0, 187500.0, 187500.0, 187500.0, 187500.0, -83909.36510674538, 0.02, 0.0, 0.98, 192.0, 0.0, 0.0, 0.0, 0.0, 0.0, 0.0, 0.0, 0.0, 0.0, 1.717237876425243E9, 0.0, 2024-06-01 03:31:16.425
169.0, 187500.0, -39435.00392854261, 187500.0, 187500.0, 187500.0, 187500.0, 187500.0, -83822.21565511414, 0.02, 0.0, 0.98, 192.0, 0.0, 0.0, 0.0, 0.0, 0.0, 0.0, 0.0, 0.0, 0.0, 1.717237876425256E9, 0.0, 2024-06-01 03:31:16.425
170.0, 187500.0, -39401.6998293042, 187500.0, 187500.0, 187500.0, 187500.0, 187500.0, -83825.79193422699, 0.02, 0.0, 0.98, 192.0, 0.0, 0.0, 0.0, 0.0, 0.0, 0.0, 0.0, 0.0, 0.0, 1.7172378764252694E9, 0.0, 2024-06-01 03:31:16.425
171.0, 187500.0, -39493.29727808205, 187500.0, 187500.0, 187500.0, 187500.0, 187500.0, -83939.87523792687, 0.02, 0.0, 0.98, 192.0, 0.0, 0.0, 0.0, 0.0, 0.0, 0.0, 0.0, 0.0, 0.0, 1.7172378764252827E9, 0.0, 2024-06-01 03:31:16.425
172.0, 187500.0, -39536.14557220287, 187500.0, 187500.0, 187500.0, 187500.0, 187500.0, -83958.13661314687, 0.02, 0.0, 0.98, 192.0, 0.0, 0.0, 0.0, 0.0, 0.0, 0.0, 0.0, 0.0, 0.0, 1.7172378764252958E9, 0.0, 2024-06-01 03:31:16.425
173.0, 187500.0, -39461.84837363343, 187500.0, 187500.0, 187500.0, 187500.0, 187500.0, -83848.59071357141, 0.02, 0.0, 0.98, 192.0, 0.0, 0.0, 0.0, 0.0, 0.0, 0.0, 0.0, 0.0, 0.0, 1.7172378764253092E9, 0.0, 2024-06-01 03:31:16.425
174.0, 187500.0, -39418.597748112414, 187500.0, 187500.0, 187500.0, 187500.0, 187500.0, -83824.87551270433, 0.02, 0.0, 0.98, 192.0, 0.0, 0.0, 0.0, 0.0, 0.0, 0.0, 0.0, 0.0, 0.0, 1.7172378764253228E9, 0.0, 2024-06-01 03:31:16.425
175.0, 187500.0, -39483.86484192191, 187500.0, 187500.0, 187500.0, 187500.0, 187500.0, -83918.48461848314, 0.02, 0.0, 0.98, 192.0, 0.0, 0.0, 0.0, 0.0, 0.0, 0.0, 0.0, 0.0, 0.0, 1.717237876425336E9, 0.0, 2024-06-01 03:31:16.425
176.0, 187500.0, -39539.475982126714, 187500.0, 187500.0, 187500.0, 187500.0, 187500.0, -83929.14640058833, 0.02, 0.0, 0.98, 192.0, 0.0, 0.0, 0.0, 0.0, 0.0, 0.0, 0.0, 0.0, 0.0, 1.7172378764253488E9, 0.0, 2024-06-01 03:31:16.425
177.0, 187500.0, -39462.42951898927, 187500.0, 187500.0, 187500.0, 187500.0, 187500.0, -83841.97459721263, 0.016, -0.004, 0.984, 192.0, 0.0, 128.0, 255.0, 224.0, 30.0, 192.0, 0.0, 0.0, 0.0, 1.717237876425362E9, 0.0, 2024-06-01 03:31:16.425
178.0, 187500.0, -39397.497701346605, 187500.0, 187500.0, 187500.0, 187500.0, 187500.0, -83806.4353235287, 0.016, -0.004, 0.984, 192.0, 0.0, 0.0, 0.0, 0.0, 0.0, 0.0, 0.0, 0.0, 0.0, 1.717237876425376E9, 0.0, 2024-06-01 03:31:16.425
179.0, 187500.0, -39467.123385324885, 187500.0, 187500.0, 187500.0, 187500.0, 187500.0, -83895.43996994973, 0.016, -0.004, 0.984, 192.0, 0.0, 0.0, 0.0, 0.0, 0.0, 0.0, 0.0, 0.0, 0.0, 1.7172378764253893E9, 0.0, 2024-06-01 03:31:16.425
180.0, 187500.0, -39544.19220020678, 187500.0, 187500.0, 187500.0, 187500.0, 187500.0, -83977.09089244496, 0.016, -0.004, 0.984, 192.0, 0.0, 0.0, 0.0, 0.0, 0.0, 0.0, 0.0, 0.0, 0.0, 1.7172378764254026E9, 0.0, 2024-06-01 03:31:16.425
181.0, 187500.0, -39492.73848447067, 187500.0, 187500.0, 187500.0, 187500.0, 187500.0, -83902.21254851969, 0.016, -0.004, 0.984, 192.0, 0.0, 0.0, 0.0, 0.0, 0.0, 0.0, 0.0, 0.0, 0.0, 1.7172378764254158E9, 0.0, 2024-06-01 03:31:16.425
182.0, 187500.0, -39410.9534515087, 187500.0, 187500.0, 187500.0, 187500.0, 187500.0, -83834.10678316436, 0.016, -0.004, 0.984, 192.0, 0.0, 0.0, 0.0, 0.0, 0.0, 0.0, 0.0, 0.0, 0.0, 1.717237876425429E9, 0.0, 2024-06-01 03:31:16.425
183.0, 187500.0, -39450.270170005584, 187500.0, 187500.0, 187500.0, 187500.0, 187500.0, -83894.92587982725, 0.016, -0.004, 0.984, 192.0, 0.0, 0.0, 0.0, 0.0, 0.0, 0.0, 0.0, 0.0, 0.0, 1.7172378764254503E9, 0.0, 2024-06-01 03:31:16.425
184.0, 187500.0, -39526.86959825392, 187500.0, 187500.0, 187500.0, 187500.0, 187500.0, -83971.48060458669, 0.016, -0.004, 0.984, 192.0, 0.0, 0.0, 0.0, 0.0, 0.0, 0.0, 0.0, 0.0, 0.0, 1.717237876425464E9, 0.0, 2024-06-01 03:31:16.425
185.0, 187500.0, -39504.6743160098, 187500.0, 187500.0, 187500.0, 187500.0, 187500.0, -83910.72856315716, 0.016, -0.004, 0.984, 192.0, 0.0, 0.0, 0.0, 0.0, 0.0, 0.0, 0.0, 0.0, 0.0, 1.7172378764254773E9, 0.0, 2024-06-01 03:31:16.425
186.0, 187500.0, -39408.07007647397, 187500.0, 187500.0, 187500.0, 187500.0, 187500.0, -83819.75696322405, 0.02, 0.002, 0.986, 192.0, 0.0, 160.0, 0.0, 16.0, 30.0, 208.0, 0.0, 0.0, 0.0, 1.7172378764254904E9, 0.0, 2024-06-01 03:31:16.425
187.0, 187500.0, -39432.880512819356, 187500.0, 187500.0, 187500.0, 187500.0, 187500.0, -83854.06689096295, 0.02, 0.002, 0.986, 192.0, 0.0, 0.0, 0.0, 0.0, 0.0, 0.0, 0.0, 0.0, 0.0, 1.7172378764255044E9, 0.0, 2024-06-01 03:31:16.425
188.0, 187500.0, -39526.333156386994, 187500.0, 187500.0, 187500.0, 187500.0, 187500.0, -83966.36205510641, 0.02, 0.002, 0.986, 192.0, 0.0, 0.0, 0.0, 0.0, 0.0, 0.0, 0.0, 0.0, 0.0, 1.7172378764255176E9, 0.0, 2024-06-01 03:31:16.425
189.0, 187500.0, -39518.48769408318, 187500.0, 187500.0, 187500.0, 187500.0, 187500.0, -83931.87331341188, 0.02, 0.002, 0.986, 192.0, 0.0, 0.0, 0.0, 0.0, 0.0, 0.0, 0.0, 0.0, 0.0, 1.717237876425531E9, 0.0, 2024-06-01 03:31:16.425
190.0, 187500.0, -39414.216806199176, 187500.0, 187500.0, 187500.0, 187500.0, 187500.0, -83827.9824051836, 0.02, 0.002, 0.986, 192.0, 0.0, 0.0, 0.0, 0.0, 0.0, 0.0, 0.0, 0.0, 0.0, 1.717237876425544E9, 0.0, 2024-06-01 03:31:16.425
191.0, 187500.0, -39426.68907960523, 187500.0, 187500.0, 187500.0, 187500.0, 187500.0, -83875.77043482906, 0.02, 0.002, 0.986, 192.0, 0.0, 0.0, 0.0, 0.0, 0.0, 0.0, 0.0, 0.0, 0.0, 1.7172378764255576E9, 0.0, 2024-06-01 03:31:16.425
192.0, 187500.0, -39532.85986576794, 187500.0, 187500.0, 187500.0, 187500.0, 187500.0, -83976.50974708912, 0.02, 0.002, 0.986, 192.0, 0.0, 0.0, 0.0, 0.0, 0.0, 0.0, 0.0, 0.0, 0.0, 1.7172378764255707E9, 0.0, 2024-06-01 03:31:16.425
193.0, 187500.0, -39547.6343688529, 187500.0, 187500.0, 187500.0, 187500.0, 187500.0, -83972.79935750955, 0.02, 0.002, 0.986, 192.0, 0.0, 0.0, 0.0, 0.0, 0.0, 0.0, 0.0, 0.0, 0.0, 1.717237876425584E9, 0.0, 2024-06-01 03:31:16.425
194.0, 187500.0, -39445.799821114524, 187500.0, 187500.0, 187500.0, 187500.0, 187500.0, -83874.4516819062, 0.02, 0.002, 0.986, 192.0, 0.0, 0.0, 0.0, 0.0, 0.0, 0.0, 0.0, 0.0, 0.0, 1.7172378764255974E9, 0.0, 2024-06-01 03:31:16.425
195.0, 187500.0, -39407.44422762922, 187500.0, 187500.0, 187500.0, 187500.0, 187500.0, -83874.049350506, 0.02, 0.002, 0.986, 192.0, 0.0, 0.0, 0.0, 0.0, 0.0, 0.0, 0.0, 0.0, 0.0, 1.7172378764256108E9, 0.0, 2024-06-01 03:31:16.425
196.0, 187500.0, -39499.44400780726, 187500.0, 187500.0, 187500.0, 187500.0, 187500.0, -83975.41451161081, 0.024, 0.002, 0.986, 192.0, 0.0, 192.0, 0.0, 16.0, 30.0, 208.0, 0.0, 0.0, 0.0, 1.717237876425624E9, 0.0, 2024-06-01 03:31:16.425
197.0, 187500.0, -39540.2806449271, 187500.0, 187500.0, 187500.0, 187500.0, 187500.0, -83977.89555524536, 0.024, 0.002, 0.986, 192.0, 0.0, 0.0, 0.0, 0.0, 0.0, 0.0, 0.0, 0.0, 0.0, 1.7172378764256375E9, 0.0, 2024-06-01 03:31:16.425
198.0, 187500.0, -39454.91933285229, 187500.0, 187500.0, 187500.0, 187500.0, 187500.0, -83869.4001876593, 0.024, 0.002, 0.986, 192.0, 0.0, 0.0, 0.0, 0.0, 0.0, 0.0, 0.0, 0.0, 0.0, 1.717237876425659E9, 0.0, 2024-06-01 03:31:16.425
199.0, 187500.0, -39406.19252993972, 187500.0, 187500.0, 187500.0, 187500.0, 187500.0, -83857.77728054253, 0.024, 0.002, 0.986, 192.0, 0.0, 0.0, 0.0, 0.0, 0.0, 0.0, 0.0, 0.0, 0.0, 1.7172378764256723E9, 0.0, 2024-06-01 03:31:16.425
200.0, 187500.0, -39465.37994925737, 187500.0, 187500.0, 187500.0, 187500.0, 187500.0, -83942.78096470606, 0.024, 0.002, 0.986, 192.0, 0.0, 0.0, 0.0, 0.0, 0.0, 0.0, 0.0, 0.0, 0.0, 1.7172378764256856E9, 0.0, 2024-06-01 03:31:16.425
201.0, 187500.0, -39537.71019431474, 187500.0, 187500.0, 187500.0, 187500.0, 187500.0, -83982.63412506988, 0.024, 0.002, 0.986, 192.0, 0.0, 0.0, 0.0, 0.0, 0.0, 0.0, 0.0, 0.0, 0.0, 1.7172378764256988E9, 0.0, 2024-06-01 03:31:16.425
202.0, 187500.0, -39468.75506267012, 187500.0, 187500.0, 187500.0, 187500.0, 187500.0, -83916.02592659307, 0.024, 0.002, 0.986, 192.0, 0.0, 0.0, 0.0, 0.0, 0.0, 0.0, 0.0, 0.0, 0.0, 1.717237876425712E9, 0.0, 2024-06-01 03:31:16.425
203.0, 187500.0, -39388.55700356448, 187500.0, 187500.0, 187500.0, 187500.0, 187500.0, -83854.82685027443, 0.024, 0.002, 0.986, 192.0, 0.0, 0.0, 0.0, 0.0, 0.0, 0.0, 0.0, 0.0, 0.0, 1.717237876425726E9, 0.0, 2024-06-01 03:31:16.425
204.0, 187500.0, -39446.93976008174, 187500.0, 187500.0, 187500.0, 187500.0, 187500.0, -83927.64883370983, 0.024, 0.002, 0.986, 192.0, 0.0, 0.0, 0.0, 0.0, 0.0, 0.0, 0.0, 0.0, 0.0, 1.7172378764257393E9, 0.0, 2024-06-01 03:31:16.425
205.0, 187500.0, -39529.328290144, 187500.0, 187500.0, 187500.0, 187500.0, 187500.0, -83989.29494491756, 0.024, 0.002, 0.986, 192.0, 0.0, 0.0, 0.0, 0.0, 0.0, 0.0, 0.0, 0.0, 0.0, 1.7172378764257524E9, 0.0, 2024-06-01 03:31:16.425
206.0, 187500.0, -39488.55870825752, 187500.0, 187500.0, 187500.0, 187500.0, 187500.0, -83931.71685120069, 0.02, -0.002, 0.986, 192.0, 0.0, 160.0, 255.0, 240.0, 30.0, 208.0, 0.0, 0.0, 0.0, 1.7172378764257658E9, 0.0, 2024-06-01 03:31:16.425
207.0, 187500.0, -39401.208090926186, 187500.0, 187500.0, 187500.0, 187500.0, 187500.0, -83874.16110922827, 0.02, -0.002, 0.986, 192.0, 0.0, 0.0, 0.0, 0.0, 0.0, 0.0, 0.0, 0.0, 0.0, 1.7172378764257796E9, 0.0, 2024-06-01 03:31:16.425
208.0, 187500.0, -39440.03307104505, 187500.0, 187500.0, 187500.0, 187500.0, 187500.0, -83935.98603439165, 0.02, -0.002, 0.986, 192.0, 0.0, 0.0, 0.0, 0.0, 0.0, 0.0, 0.0, 0.0, 0.0, 1.7172378764257927E9, 0.0, 2024-06-01 03:31:16.425
209.0, 187500.0, -39525.90847324234, 187500.0, 187500.0, 187500.0, 187500.0, 187500.0, -84003.48830264669, 0.02, -0.002, 0.986, 192.0, 0.0, 0.0, 0.0, 0.0, 0.0, 0.0, 0.0, 0.0, 0.0, 1.717237876425806E9, 0.0, 2024-06-01 03:31:16.425
210.0, 187500.0, -39509.9269759568, 187500.0, 187500.0, 187500.0, 187500.0, 187500.0, -83949.37472932038, 0.02, -0.002, 0.986, 192.0, 0.0, 0.0, 0.0, 0.0, 0.0, 0.0, 0.0, 0.0, 0.0, 1.7172378764258194E9, 0.0, 2024-06-01 03:31:16.425
211.0, 187500.0, -39412.29455617601, 187500.0, 187500.0, 187500.0, 187500.0, 187500.0, -83866.36035041336, 0.02, -0.002, 0.986, 192.0, 0.0, 0.0, 0.0, 0.0, 0.0, 0.0, 0.0, 0.0, 0.0, 1.7172378764258325E9, 0.0, 2024-06-01 03:31:16.425
212.0, 187500.0, -39425.77265808257, 187500.0, 187500.0, 187500.0, 187500.0, 187500.0, -83906.72760089966, 0.02, -0.002, 0.986, 192.0, 0.0, 0.0, 0.0, 0.0, 0.0, 0.0, 0.0, 0.0, 0.0, 1.7172378764258459E9, 0.0, 2024-06-01 03:31:16.425
213.0, 187500.0, -39519.02413595011, 187500.0, 187500.0, 187500.0, 187500.0, 187500.0, -83989.45140712874, 0.02, -0.002, 0.986, 192.0, 0.0, 0.0, 0.0, 0.0, 0.0, 0.0, 0.0, 0.0, 0.0, 1.7172378764258668E9, 0.0, 2024-06-01 03:31:16.425
214.0, 187500.0, -39516.00665044864, 187500.0, 187500.0, 187500.0, 187500.0, 187500.0, -83968.55252606304, 0.02, -0.002, 0.986, 192.0, 0.0, 0.0, 0.0, 0.0, 0.0, 0.0, 0.0, 0.0, 0.0, 1.7172378768896751E9, 0.0, 2024-06-01 03:31:16.889
215.0, 187500.0, -39427.47139066117, 187500.0, 187500.0, 187500.0, 187500.0, 187500.0, -83883.21356573267, 0.02, -0.002, 0.986, 192.0, 0.0, 0.0, 0.0, 0.0, 0.0, 0.0, 0.0, 0.0, 0.0, 1.717237876889738E9, 0.0, 2024-06-01 03:31:16.889
216.0, 187500.0, -39421.391716169324, 187500.0, 187500.0, 187500.0, 187500.0, 187500.0, -83909.6109759344, 0.022, -0.002, 0.984, 192.0, 0.0, 176.0, 255.0, 240.0, 30.0, 192.0, 0.0, 0.0, 0.0, 1.7172378768897717E9, 0.0, 2024-06-01 03:31:16.889
217.0, 187500.0, -39503.71319099822, 187500.0, 187500.0, 187500.0, 187500.0, 187500.0, -84008.5845003825, 0.022, -0.002, 0.984, 192.0, 0.0, 0.0, 0.0, 0.0, 0.0, 0.0, 0.0, 0.0, 0.0, 1.7172378768898053E9, 0.0, 2024-06-01 03:31:16.889
218.0, 187500.0, -39535.81029603604, 187500.0, 187500.0, 187500.0, 187500.0, 187500.0, -84007.15398873735, 0.022, -0.002, 0.984, 192.0, 0.0, 0.0, 0.0, 0.0, 0.0, 0.0, 0.0, 0.0, 0.0, 1.717237876889835E9, 0.0, 2024-06-01 03:31:16.889
219.0, 187500.0, -39457.98152184267, 187500.0, 187500.0, 187500.0, 187500.0, 187500.0, -83902.01138281959, 0.022, -0.002, 0.984, 192.0, 0.0, 0.0, 0.0, 0.0, 0.0, 0.0, 0.0, 0.0, 0.0, 1.7172378768898647E9, 0.0, 2024-06-01 03:31:16.889
220.0, 187500.0, -39411.98163175364, 187500.0, 187500.0, 187500.0, 187500.0, 187500.0, -83903.26308050909, 0.022, -0.002, 0.984, 192.0, 0.0, 0.0, 0.0, 0.0, 0.0, 0.0, 0.0, 0.0, 0.0, 1.717237876889894E9, 0.0, 2024-06-01 03:31:16.889
221.0, 187500.0, -39495.28658333857, 187500.0, 187500.0, 187500.0, 187500.0, 187500.0, -84004.36002068044, 0.022, -0.002, 0.984, 192.0, 0.0, 0.0, 0.0, 0.0, 0.0, 0.0, 0.0, 0.0, 0.0, 1.7172378768899207E9, 0.0, 2024-06-01 03:31:16.889
222.0, 187500.0, -39536.03381348059, 187500.0, 187500.0, 187500.0, 187500.0, 187500.0, -84014.77593359661, 0.022, -0.002, 0.984, 192.0, 0.0, 0.0, 0.0, 0.0, 0.0, 0.0, 0.0, 0.0, 0.0, 1.7172378768899367E9, 0.0, 2024-06-01 03:31:16.889
223.0, 187500.0, -39461.08841432195, 187500.0, 187500.0, 187500.0, 187500.0, 187500.0, -83922.61969120738, 0.022, -0.002, 0.984, 192.0, 0.0, 0.0, 0.0, 0.0, 0.0, 0.0, 0.0, 0.0, 0.0, 1.7172378768899527E9, 0.0, 2024-06-01 03:31:16.889
224.0, 187500.0, -39406.28193691754, 187500.0, 187500.0, 187500.0, 187500.0, 187500.0, -83900.75968513009, 0.022, -0.002, 0.984, 192.0, 0.0, 0.0, 0.0, 0.0, 0.0, 0.0, 0.0, 0.0, 0.0, 1.7172378768899682E9, 0.0, 2024-06-01 03:31:16.889
225.0, 187500.0, -39482.38962678786, 187500.0, 187500.0, 187500.0, 187500.0, 187500.0, -83990.77016005162, 0.022, -0.002, 0.984, 192.0, 0.0, 0.0, 0.0, 0.0, 0.0, 0.0, 0.0, 0.0, 0.0, 1.717237876889984E9, 0.0, 2024-06-01 03:31:16.889
226.0, 187500.0, -39550.20481946526, 187500.0, 187500.0, 187500.0, 187500.0, 187500.0, -84035.3395384955, 0.026000000000000002, -0.002, 0.984, 192.0, 0.0, 208.0, 255.0, 240.0, 30.0, 192.0, 0.0, 0.0, 0.0, 1.7172378768899996E9, 0.0, 2024-06-01 03:31:16.889
227.0, 187500.0, -39482.32257155449, 187500.0, 187500.0, 187500.0, 187500.0, 187500.0, -83935.78486869155, 0.026000000000000002, -0.002, 0.984, 192.0, 0.0, 0.0, 0.0, 0.0, 0.0, 0.0, 0.0, 0.0, 0.0, 1.717237876890016E9, 0.0, 2024-06-01 03:31:16.890
228.0, 187500.0, -39412.942756765224, 187500.0, 187500.0, 187500.0, 187500.0, 187500.0, -83886.25340297859, 0.026000000000000002, -0.002, 0.984, 192.0, 0.0, 0.0, 0.0, 0.0, 0.0, 0.0, 0.0, 0.0, 0.0, 1.7172378768900764E9, 0.0, 2024-06-01 03:31:16.890
229.0, 187500.0, -39466.74340566914, 187500.0, 187500.0, 187500.0, 187500.0, 187500.0, -83980.35424713543, 0.026000000000000002, -0.002, 0.984, 192.0, 0.0, 0.0, 0.0, 0.0, 0.0, 0.0, 0.0, 0.0, 0.0, 1.7172378768900924E9, 0.0, 2024-06-01 03:31:16.890
230.0, 187500.0, -39555.54688639008, 187500.0, 187500.0, 187500.0, 187500.0, 187500.0, -84043.7437944107, 0.026000000000000002, -0.002, 0.984, 192.0, 0.0, 0.0, 0.0, 0.0, 0.0, 0.0, 0.0, 0.0, 0.0, 1.717237876890108E9, 0.0, 2024-06-01 03:31:16.890
231.0, 187500.0, -39513.79382774756, 187500.0, 187500.0, 187500.0, 187500.0, 187500.0, -83980.19778492425, 0.026000000000000002, -0.002, 0.984, 192.0, 0.0, 0.0, 0.0, 0.0, 0.0, 0.0, 0.0, 0.0, 0.0, 1.7172378768901238E9, 0.0, 2024-06-01 03:31:16.890
232.0, 187500.0, -39417.72603007866, 187500.0, 187500.0, 187500.0, 187500.0, 187500.0, -83906.302917755, 0.026000000000000002, -0.002, 0.984, 192.0, 0.0, 0.0, 0.0, 0.0, 0.0, 0.0, 0.0, 0.0, 0.0, 1.717237876890139E9, 0.0, 2024-06-01 03:31:16.890
233.0, 187500.0, -39448.034995560054, 187500.0, 187500.0, 187500.0, 187500.0, 187500.0, -83962.65166552684, 0.026000000000000002, -0.002, 0.984, 192.0, 0.0, 0.0, 0.0, 0.0, 0.0, 0.0, 0.0, 0.0, 0.0, 1.7172378768901548E9, 0.0, 2024-06-01 03:31:16.890
234.0, 187500.0, -39542.761688561644, 187500.0, 187500.0, 187500.0, 187500.0, 187500.0, -84040.32397750902, 0.026000000000000002, -0.002, 0.984, 192.0, 0.0, 0.0, 0.0, 0.0, 0.0, 0.0, 0.0, 0.0, 0.0, 1.7172378768901703E9, 0.0, 2024-06-01 03:31:16.890
235.0, 187500.0, -39518.73356327219, 187500.0, 187500.0, 187500.0, 187500.0, 187500.0, -83999.24147120018, 0.026000000000000002, -0.002, 0.984, 192.0, 0.0, 0.0, 0.0, 0.0, 0.0, 0.0, 0.0, 0.0, 0.0, 1.717237876890186E9, 0.0, 2024-06-01 03:31:16.890
236.0, 187500.0, -39412.719239320664, 187500.0, 187500.0, 187500.0, 187500.0, 187500.0, -83914.37189750337, 0.022, 0.002, 0.978, 192.0, 0.0, 176.0, 0.0, 16.0, 30.0, 144.0, 0.0, 0.0, 0.0, 1.717237876890202E9, 0.0, 2024-06-01 03:31:16.890
237.0, 187500.0, -39436.56855065448, 187500.0, 187500.0, 187500.0, 187500.0, 187500.0, -83963.34456960495, 0.022, 0.002, 0.978, 192.0, 0.0, 0.0, 0.0, 0.0, 0.0, 0.0, 0.0, 0.0, 0.0, 1.7172378768902185E9, 0.0, 2024-06-01 03:31:16.890
238.0, 187500.0, -39525.03675520859, 187500.0, 187500.0, 187500.0, 187500.0, 187500.0, -84042.42504148782, 0.022, 0.002, 0.978, 192.0, 0.0, 0.0, 0.0, 0.0, 0.0, 0.0, 0.0, 0.0, 0.0, 1.717237876890234E9, 0.0, 2024-06-01 03:31:16.890
239.0, 187500.0, -39534.648005324365, 187500.0, 187500.0, 187500.0, 187500.0, 187500.0, -84021.77202961112, 0.022, 0.002, 0.978, 192.0, 0.0, 0.0, 0.0, 0.0, 0.0, 0.0, 0.0, 0.0, 0.0, 1.7172378768902495E9, 0.0, 2024-06-01 03:31:16.890
240.0, 187500.0, -39438.28963497754, 187500.0, 187500.0, 187500.0, 187500.0, 187500.0, -83926.15126683132, 0.022, 0.002, 0.978, 192.0, 0.0, 0.0, 0.0, 0.0, 0.0, 0.0, 0.0, 0.0, 0.0, 1.7172378768902657E9, 0.0, 2024-06-01 03:31:16.890
241.0, 187500.0, -39423.4033731703, 187500.0, 187500.0, 187500.0, 187500.0, 187500.0, -83930.12987734436, 0.022, 0.002, 0.978, 192.0, 0.0, 0.0, 0.0, 0.0, 0.0, 0.0, 0.0, 0.0, 0.0, 1.717237876890281E9, 0.0, 2024-06-01 03:31:16.890
242.0, 187500.0, -39508.719981756214, 187500.0, 187500.0, 187500.0, 187500.0, 187500.0, -84021.30264297756, 0.022, 0.002, 0.978, 192.0, 0.0, 0.0, 0.0, 0.0, 0.0, 0.0, 0.0, 0.0, 0.0, 1.7172378768902965E9, 0.0, 2024-06-01 03:31:16.890
243.0, 187500.0, -39535.45266812476, 187500.0, 187500.0, 187500.0, 187500.0, 187500.0, -84033.66315766134, 0.022, 0.002, 0.978, 192.0, 0.0, 0.0, 0.0, 0.0, 0.0, 0.0, 0.0, 0.0, 0.0, 1.7172378768903854E9, 0.0, 2024-06-01 03:31:16.890
244.0, 187500.0, -39446.44802170373, 187500.0, 187500.0, 187500.0, 187500.0, 187500.0, -83939.83053443796, 0.022, 0.002, 0.978, 192.0, 0.0, 0.0, 0.0, 0.0, 0.0, 0.0, 0.0, 0.0, 0.0, 1.7172378768904016E9, 0.0, 2024-06-01 03:31:16.890
245.0, 187500.0, -39403.97970723864, 187500.0, 187500.0, 187500.0, 187500.0, 187500.0, -83935.3601855469, 0.022, 0.002, 0.978, 192.0, 0.0, 0.0, 0.0, 0.0, 0.0, 0.0, 0.0, 0.0, 0.0, 1.7172378768904173E9, 0.0, 2024-06-01 03:31:16.890
246.0, 187500.0, -39492.24674609265, 187500.0, 187500.0, 187500.0, 187500.0, 187500.0, -84035.09366930649, 0.022, 0.002, 0.978, 192.0, 0.0, 176.0, 0.0, 16.0, 30.0, 144.0, 0.0, 0.0, 0.0, 1.717237876890433E9, 0.0, 2024-06-01 03:31:16.890
247.0, 187500.0, -39546.85205779696, 187500.0, 187500.0, 187500.0, 187500.0, 187500.0, -84062.36279754195, 0.022, 0.002, 0.978, 192.0, 0.0, 0.0, 0.0, 0.0, 0.0, 0.0, 0.0, 0.0, 0.0, 1.7172378768904493E9, 0.0, 2024-06-01 03:31:16.890
248.0, 187500.0, -39480.37796978688, 187500.0, 187500.0, 187500.0, 187500.0, 187500.0, -83958.7177585027, 0.022, 0.002, 0.978, 192.0, 0.0, 0.0, 0.0, 0.0, 0.0, 0.0, 0.0, 0.0, 0.0, 1.7172378768904648E9, 0.0, 2024-06-01 03:31:16.890
249.0, 187500.0, -39424.02922201505, 187500.0, 187500.0, 187500.0, 187500.0, 187500.0, -83931.18040933376, 0.022, 0.002, 0.978, 192.0, 0.0, 0.0, 0.0, 0.0, 0.0, 0.0, 0.0, 0.0, 0.0, 1.7172378768904812E9, 0.0, 2024-06-01 03:31:16.890
250.0, 187500.0, -39494.23605134917, 187500.0, 187500.0, 187500.0, 187500.0, 187500.0, -84024.72245987922, 0.022, 0.002, 0.978, 192.0, 0.0, 0.0, 0.0, 0.0, 0.0, 0.0, 0.0, 0.0, 0.0, 1.717237876890497E9, 0.0, 2024-06-01 03:31:16.890
251.0, 187500.0, -39559.324331203024, 187500.0, 187500.0, 187500.0, 187500.0, 187500.0, -84069.47065227875, 0.022, 0.002, 0.978, 192.0, 0.0, 0.0, 0.0, 0.0, 0.0, 0.0, 0.0, 0.0, 0.0, 1.7172378768905127E9, 0.0, 2024-06-01 03:31:16.890
252.0, 187500.0, -39500.539243285566, 187500.0, 187500.0, 187500.0, 187500.0, 187500.0, -83984.24345067066, 0.022, 0.002, 0.978, 192.0, 0.0, 0.0, 0.0, 0.0, 0.0, 0.0, 0.0, 0.0, 0.0, 1.717237876890528E9, 0.0, 2024-06-01 03:31:16.890
253.0, 187500.0, -39430.89120756283, 187500.0, 187500.0, 187500.0, 187500.0, 187500.0, -83937.68476697025, 0.022, 0.002, 0.978, 192.0, 0.0, 0.0, 0.0, 0.0, 0.0, 0.0, 0.0, 0.0, 0.0, 1.7172378768905437E9, 0.0, 2024-06-01 03:31:16.890
254.0, 187500.0, -39490.190385602764, 187500.0, 187500.0, 187500.0, 187500.0, 187500.0, -84025.32595697952, 0.022, 0.002, 0.978, 192.0, 0.0, 0.0, 0.0, 0.0, 0.0, 0.0, 0.0, 0.0, 0.0, 1.7172378768905594E9, 0.0, 2024-06-01 03:31:16.890
255.0, 187500.0, -39578.32331399004, 187500.0, 187500.0, 187500.0, 187500.0, 187500.0, -84089.58722228852, 0.022, 0.002, 0.978, 192.0, 0.0, 0.0, 0.0, 0.0, 0.0, 0.0, 0.0, 0.0, 0.0, 1.7172378768905747E9, 0.0, 2024-06-01 03:31:16.890
0.0, 187500.0, -39551.143592732384, 187500.0, 187500.0, 187500.0, 187500.0, 187500.0, -84027.40466921385, 0.02, 0.0, 0.978, 192.0, 0.0, 160.0, 0.0, 0.0, 30.0, 144.0, 0.0, 0.0, 0.0, 1.7172378768905904E9, 0.0, 2024-06-01 03:31:16.890
1.0, 187500.0, -39480.08739710896, 187500.0, 187500.0, 187500.0, 187500.0, 187500.0, -83969.62540979689, 0.02, 0.0, 0.978, 192.0, 0.0, 0.0, 0.0, 0.0, 0.0, 0.0, 0.0, 0.0, 0.0, 1.7172378768906064E9, 0.0, 2024-06-01 03:31:16.890
2.0, 187500.0, -39527.54015058758, 187500.0, 187500.0, 187500.0, 187500.0, 187500.0, -84051.32103578103, 0.02, 0.0, 0.978, 192.0, 0.0, 0.0, 0.0, 0.0, 0.0, 0.0, 0.0, 0.0, 0.0, 1.717237876890622E9, 0.0, 2024-06-01 03:31:16.890
3.0, 187500.0, -39638.89654146392, 187500.0, 187500.0, 187500.0, 187500.0, 187500.0, -84156.53069693217, 0.02, 0.0, 0.978, 192.0, 0.0, 0.0, 0.0, 0.0, 0.0, 0.0, 0.0, 0.0, 0.0, 1.7172378768906488E9, 0.0, 2024-06-01 03:31:16.890
4.0, 187500.0, -39641.42228858737, 187500.0, 187500.0, 187500.0, 187500.0, 187500.0, -84130.64737685292, 0.02, 0.0, 0.978, 192.0, 0.0, 0.0, 0.0, 0.0, 0.0, 0.0, 0.0, 0.0, 0.0, 1.7172378768906643E9, 0.0, 2024-06-01 03:31:16.890
5.0, 187500.0, -39565.7392818617, 187500.0, 187500.0, 187500.0, 187500.0, 187500.0, -84060.06056786307, 0.02, 0.0, 0.978, 192.0, 0.0, 0.0, 0.0, 0.0, 0.0, 0.0, 0.0, 0.0, 0.0, 1.7172378768906796E9, 0.0, 2024-06-01 03:31:16.890
6.0, 187500.0, -39591.46613972976, 187500.0, 187500.0, 187500.0, 187500.0, 187500.0, -84111.02254522116, 0.02, 0.0, 0.978, 192.0, 0.0, 0.0, 0.0, 0.0, 0.0, 0.0, 0.0, 0.0, 0.0, 1.717237876890695E9, 0.0, 2024-06-01 03:31:16.890
7.0, 187500.0, -39707.33758298607, 187500.0, 187500.0, 187500.0, 187500.0, 187500.0, -84232.32546238012, 0.02, 0.0, 0.978, 192.0, 0.0, 0.0, 0.0, 0.0, 0.0, 0.0, 0.0, 0.0, 0.0, 1.7172378768907108E9, 0.0, 2024-06-01 03:31:16.890
8.0, 187500.0, -39714.71365865632, 187500.0, 187500.0, 187500.0, 187500.0, 187500.0, -84208.40909581294, 0.02, 0.0, 0.978, 192.0, 0.0, 0.0, 0.0, 0.0, 0.0, 0.0, 0.0, 0.0, 0.0, 1.7172378768907263E9, 0.0, 2024-06-01 03:31:16.890
9.0, 187500.0, -39623.98792791223, 187500.0, 187500.0, 187500.0, 187500.0, 187500.0, -84120.61144359248, 0.02, 0.0, 0.978, 192.0, 0.0, 0.0, 0.0, 0.0, 0.0, 0.0, 0.0, 0.0, 0.0, 1.7172378768907416E9, 0.0, 2024-06-01 03:31:16.890
10.0, 187500.0, -39613.70612546279, 187500.0, 187500.0, 187500.0, 187500.0, 187500.0, -84137.59876937853, 0.02, -0.004, 0.982, 192.0, 0.0, 160.0, 255.0, 224.0, 30.0, 176.0, 0.0, 0.0, 0.0, 1.7172378768907568E9, 0.0, 2024-06-01 03:31:16.890
11.0, 187500.0, -39705.88471959648, 187500.0, 187500.0, 187500.0, 187500.0, 187500.0, -84237.28754964919, 0.02, -0.004, 0.982, 192.0, 0.0, 0.0, 0.0, 0.0, 0.0, 0.0, 0.0, 0.0, 0.0, 1.7172378768907733E9, 0.0, 2024-06-01 03:31:16.890
12.0, 187500.0, -39763.395758079976, 187500.0, 187500.0, 187500.0, 187500.0, 187500.0, -84240.39444212848, 0.02, -0.004, 0.982, 192.0, 0.0, 0.0, 0.0, 0.0, 0.0, 0.0, 0.0, 0.0, 0.0, 1.7172378768907888E9, 0.0, 2024-06-01 03:31:16.890
13.0, 187500.0, -39684.20352747483, 187500.0, 187500.0, 187500.0, 187500.0, 187500.0, -84147.29942647212, 0.02, -0.004, 0.982, 192.0, 0.0, 0.0, 0.0, 0.0, 0.0, 0.0, 0.0, 0.0, 0.0, 1.7172378768908043E9, 0.0, 2024-06-01 03:31:16.890
14.0, 187500.0, -39652.19582941483, 187500.0, 187500.0, 187500.0, 187500.0, 187500.0, -84166.27605751468, 0.02, -0.004, 0.982, 192.0, 0.0, 0.0, 0.0, 0.0, 0.0, 0.0, 0.0, 0.0, 0.0, 1.7172378768908212E9, 0.0, 2024-06-01 03:31:16.890
15.0, 187500.0, -39741.33458630259, 187500.0, 187500.0, 187500.0, 187500.0, 187500.0, -84275.8890123235, 0.02, -0.004, 0.982, 192.0, 0.0, 0.0, 0.0, 0.0, 0.0, 0.0, 0.0, 0.0, 0.0, 1.7172378768908377E9, 0.0, 2024-06-01 03:31:16.890
16.0, 187500.0, -39788.04973221418, 187500.0, 187500.0, 187500.0, 187500.0, 187500.0, -84293.05515206518, 0.02, -0.004, 0.982, 192.0, 0.0, 0.0, 0.0, 0.0, 0.0, 0.0, 0.0, 0.0, 0.0, 1.717237876890854E9, 0.0, 2024-06-01 03:31:16.890
17.0, 187500.0, -39700.78852186067, 187500.0, 187500.0, 187500.0, 187500.0, 187500.0, -84194.30514506163, 0.02, -0.004, 0.982, 192.0, 0.0, 0.0, 0.0, 0.0, 0.0, 0.0, 0.0, 0.0, 0.0, 1.71723787689087E9, 0.0, 2024-06-01 03:31:16.890
18.0, 187500.0, -39629.28529134814, 187500.0, 187500.0, 187500.0, 187500.0, 187500.0, -84168.55593544913, 0.02, -0.004, 0.982, 192.0, 0.0, 0.0, 0.0, 0.0, 0.0, 0.0, 0.0, 0.0, 0.0, 1.717237876890894E9, 0.0, 2024-06-01 03:31:16.890
19.0, 187500.0, -39690.14909149994, 187500.0, 187500.0, 187500.0, 187500.0, 187500.0, -84252.37497715652, 0.02, -0.004, 0.982, 192.0, 0.0, 0.0, 0.0, 0.0, 0.0, 0.0, 0.0, 0.0, 0.0, 1.7172378768909066E9, 0.0, 2024-06-01 03:31:16.890
20.0, 187500.0, -39761.56291503464, 187500.0, 187500.0, 187500.0, 187500.0, 187500.0, -84298.66543992347, 0.02, -0.006, 0.986, 192.0, 0.0, 160.0, 255.0, 208.0, 30.0, 208.0, 0.0, 0.0, 0.0, 1.717237876890919E9, 0.0, 2024-06-01 03:31:16.890
21.0, 187500.0, -39700.542652671655, 187500.0, 187500.0, 187500.0, 187500.0, 187500.0, -84206.44214230086, 0.02, -0.006, 0.986, 192.0, 0.0, 0.0, 0.0, 0.0, 0.0, 0.0, 0.0, 0.0, 0.0, 1.717237876890932E9, 0.0, 2024-06-01 03:31:16.890
22.0, 187500.0, -39621.328070322044, 187500.0, 187500.0, 187500.0, 187500.0, 187500.0, -84134.87185655498, 0.02, -0.006, 0.986, 192.0, 0.0, 0.0, 0.0, 0.0, 0.0, 0.0, 0.0, 0.0, 0.0, 1.7172378768909447E9, 0.0, 2024-06-01 03:31:16.890
23.0, 187500.0, -39670.72542556828, 187500.0, 187500.0, 187500.0, 187500.0, 187500.0, -84211.98537492579, 0.02, -0.006, 0.986, 192.0, 0.0, 0.0, 0.0, 0.0, 0.0, 0.0, 0.0, 0.0, 0.0, 1.717237876890957E9, 0.0, 2024-06-01 03:31:16.890
24.0, 187500.0, -39744.75440320426, 187500.0, 187500.0, 187500.0, 187500.0, 187500.0, -84277.40893094646, 0.02, -0.006, 0.986, 192.0, 0.0, 0.0, 0.0, 0.0, 0.0, 0.0, 0.0, 0.0, 0.0, 1.7172378768909695E9, 0.0, 2024-06-01 03:31:16.890
25.0, 187500.0, -39695.22293749129, 187500.0, 187500.0, 187500.0, 187500.0, 187500.0, -84204.49754053325, 0.02, -0.006, 0.986, 192.0, 0.0, 0.0, 0.0, 0.0, 0.0, 0.0, 0.0, 0.0, 0.0, 1.717237876890982E9, 0.0, 2024-06-01 03:31:16.890
26.0, 187500.0, -39605.03364861413, 187500.0, 187500.0, 187500.0, 187500.0, 187500.0, -84114.5094173562, 0.02, -0.006, 0.986, 192.0, 0.0, 0.0, 0.0, 0.0, 0.0, 0.0, 0.0, 0.0, 0.0, 1.7172378768909943E9, 0.0, 2024-06-01 03:31:16.890
27.0, 187500.0, -39631.92279719386, 187500.0, 187500.0, 187500.0, 187500.0, 187500.0, -84167.57245869309, 0.02, -0.006, 0.986, 192.0, 0.0, 0.0, 0.0, 0.0, 0.0, 0.0, 0.0, 0.0, 0.0, 1.7172378768910067E9, 0.0, 2024-06-01 03:31:16.891
28.0, 187500.0, -39706.71173414132, 187500.0, 187500.0, 187500.0, 187500.0, 187500.0, -84255.79479405818, 0.02, -0.006, 0.986, 192.0, 0.0, 0.0, 0.0, 0.0, 0.0, 0.0, 0.0, 0.0, 0.0, 1.717237876891019E9, 0.0, 2024-06-01 03:31:16.891
29.0, 187500.0, -39677.274486693685, 187500.0, 187500.0, 187500.0, 187500.0, 187500.0, -84196.56267125162, 0.02, -0.006, 0.986, 192.0, 0.0, 0.0, 0.0, 0.0, 0.0, 0.0, 0.0, 0.0, 0.0, 1.7172378768910315E9, 0.0, 2024-06-01 03:31:16.891
30.0, 187500.0, -39578.703293645776, 187500.0, 187500.0, 187500.0, 187500.0, 187500.0, -84109.27910915365, 0.02, -0.006, 0.986, 192.0, 0.0, 160.0, 255.0, 208.0, 30.0, 208.0, 0.0, 0.0, 0.0, 1.717237876891044E9, 0.0, 2024-06-01 03:31:16.891
31.0, 187500.0, -39583.95595359278, 187500.0, 187500.0, 187500.0, 187500.0, 187500.0, -84151.00981605171, 0.02, -0.006, 0.986, 192.0, 0.0, 0.0, 0.0, 0.0, 0.0, 0.0, 0.0, 0.0, 0.0, 1.7172378768910568E9, 0.0, 2024-06-01 03:31:16.891
32.0, 187500.0, -39685.38816993096, 187500.0, 187500.0, 187500.0, 187500.0, 187500.0, -84241.91436075144, 0.02, -0.006, 0.986, 192.0, 0.0, 0.0, 0.0, 0.0, 0.0, 0.0, 0.0, 0.0, 0.0, 1.7172378768910692E9, 0.0, 2024-06-01 03:31:16.891
33.0, 187500.0, -39692.25015547874, 187500.0, 187500.0, 187500.0, 187500.0, 187500.0, -84216.45572381685, 0.02, -0.006, 0.986, 192.0, 0.0, 0.0, 0.0, 0.0, 0.0, 0.0, 0.0, 0.0, 0.0, 1.7172378768910975E9, 0.0, 2024-06-01 03:31:16.891
34.0, 187500.0, -39581.989000080706, 187500.0, 187500.0, 187500.0, 187500.0, 187500.0, -84103.53471082864, 0.02, -0.006, 0.986, 192.0, 0.0, 0.0, 0.0, 0.0, 0.0, 0.0, 0.0, 0.0, 0.0, 1.7172378768911173E9, 0.0, 2024-06-01 03:31:16.891
35.0, 187500.0, -39549.64602585388, 187500.0, 187500.0, 187500.0, 187500.0, 187500.0, -84102.66299279488, 0.02, -0.006, 0.986, 192.0, 0.0, 0.0, 0.0, 0.0, 0.0, 0.0, 0.0, 0.0, 0.0, 1.7172378768911371E9, 0.0, 2024-06-01 03:31:16.891
36.0, 187500.0, -39636.63901527393, 187500.0, 187500.0, 187500.0, 187500.0, 187500.0, -84209.43727605788, 0.02, -0.006, 0.986, 192.0, 0.0, 0.0, 0.0, 0.0, 0.0, 0.0, 0.0, 0.0, 0.0, 1.717237876891156E9, 0.0, 2024-06-01 03:31:16.891
37.0, 187500.0, -39661.18123068586, 187500.0, 187500.0, 187500.0, 187500.0, 187500.0, -84211.20306386985, 0.02, -0.006, 0.986, 192.0, 0.0, 0.0, 0.0, 0.0, 0.0, 0.0, 0.0, 0.0, 0.0, 1.7172378768911688E9, 0.0, 2024-06-01 03:31:16.891
38.0, 187500.0, -39557.55854339106, 187500.0, 187500.0, 187500.0, 187500.0, 187500.0, -84095.86806248047, 0.02, -0.006, 0.986, 192.0, 0.0, 0.0, 0.0, 0.0, 0.0, 0.0, 0.0, 0.0, 0.0, 1.7172378768911817E9, 0.0, 2024-06-01 03:31:16.891
39.0, 187500.0, -39516.36427835993, 187500.0, 187500.0, 187500.0, 187500.0, 187500.0, -84072.55519301358, 0.02, -0.006, 0.986, 192.0, 0.0, 0.0, 0.0, 0.0, 0.0, 0.0, 0.0, 0.0, 0.0, 1.717237876891194E9, 0.0, 2024-06-01 03:31:16.891
40.0, 187500.0, -39600.54094797861, 187500.0, 187500.0, 187500.0, 187500.0, 187500.0, -84171.90869711741, 0.02, -0.006, 0.988, 192.0, 0.0, 160.0, 255.0, 208.0, 30.0, 224.0, 0.0, 0.0, 0.0, 1.7172378768912065E9, 0.0, 2024-06-01 03:31:16.891
41.0, 187500.0, -39651.681739292355, 187500.0, 187500.0, 187500.0, 187500.0, 187500.0, -84205.3245550781, 0.02, -0.006, 0.988, 192.0, 0.0, 0.0, 0.0, 0.0, 0.0, 0.0, 0.0, 0.0, 0.0, 1.7172378768912194E9, 0.0, 2024-06-01 03:31:16.891
42.0, 187500.0, -39579.4409012128, 187500.0, 187500.0, 187500.0, 187500.0, 187500.0, -84117.23633017973, 0.02, -0.006, 0.988, 192.0, 0.0, 0.0, 0.0, 0.0, 0.0, 0.0, 0.0, 0.0, 0.0, 1.717237876891232E9, 0.0, 2024-06-01 03:31:16.891
43.0, 187500.0, -39508.25059512265, 187500.0, 187500.0, 187500.0, 187500.0, 187500.0, -84060.99934113018, 0.02, -0.006, 0.988, 192.0, 0.0, 0.0, 0.0, 0.0, 0.0, 0.0, 0.0, 0.0, 0.0, 1.7172378768912444E9, 0.0, 2024-06-01 03:31:16.891
44.0, 187500.0, -39572.91419183185, 187500.0, 187500.0, 187500.0, 187500.0, 187500.0, -84151.59096140755, 0.02, -0.006, 0.988, 192.0, 0.0, 0.0, 0.0, 0.0, 0.0, 0.0, 0.0, 0.0, 0.0, 1.7172378768912568E9, 0.0, 2024-06-01 03:31:16.891
45.0, 187500.0, -39651.83820150354, 187500.0, 187500.0, 187500.0, 187500.0, 187500.0, -84201.68122073189, 0.02, -0.006, 0.988, 192.0, 0.0, 0.0, 0.0, 0.0, 0.0, 0.0, 0.0, 0.0, 0.0, 1.7172378768912697E9, 0.0, 2024-06-01 03:31:16.891
46.0, 187500.0, -39582.45838671427, 187500.0, 187500.0, 187500.0, 187500.0, 187500.0, -84112.2071876773, 0.02, -0.006, 0.988, 192.0, 0.0, 0.0, 0.0, 0.0, 0.0, 0.0, 0.0, 0.0, 0.0, 1.717237876891282E9, 0.0, 2024-06-01 03:31:16.891
47.0, 187500.0, -39484.49069076666, 187500.0, 187500.0, 187500.0, 187500.0, 187500.0, -84056.01490211664, 0.02, -0.006, 0.988, 192.0, 0.0, 0.0, 0.0, 0.0, 0.0, 0.0, 0.0, 0.0, 0.0, 1.7172378768912945E9, 0.0, 2024-06-01 03:31:16.891
48.0, 187500.0, -39520.34288887297, 187500.0, 187500.0, 187500.0, 187500.0, 187500.0, -84129.3062721856, 0.02, -0.006, 0.988, 192.0, 0.0, 0.0, 0.0, 0.0, 0.0, 0.0, 0.0, 0.0, 0.0, 1.7172378768913171E9, 0.0, 2024-06-01 03:31:16.891
49.0, 187500.0, -39607.82761667104, 187500.0, 187500.0, 187500.0, 187500.0, 187500.0, -84199.6695637309, 0.02, -0.006, 0.988, 192.0, 0.0, 0.0, 0.0, 0.0, 0.0, 0.0, 0.0, 0.0, 0.0, 1.7172378768913295E9, 0.0, 2024-06-01 03:31:16.891
50.0, 187500.0, -39573.29417148759, 187500.0, 187500.0, 187500.0, 187500.0, 187500.0, -84130.58032161955, 0.014, -0.006, 0.978, 192.0, 0.0, 112.0, 255.0, 208.0, 30.0, 144.0, 0.0, 0.0, 0.0, 1.7172378768913424E9, 0.0, 2024-06-01 03:31:16.891
51.0, 187500.0, -39479.01451337511, 187500.0, 187500.0, 187500.0, 187500.0, 187500.0, -84054.67379744933, 0.014, -0.006, 0.978, 192.0, 0.0, 0.0, 0.0, 0.0, 0.0, 0.0, 0.0, 0.0, 0.0, 1.7172378768913553E9, 0.0, 2024-06-01 03:31:16.891
52.0, 187500.0, -39503.824949720496, 187500.0, 187500.0, 187500.0, 187500.0, 187500.0, -84101.45599859429, 0.014, -0.006, 0.978, 192.0, 0.0, 0.0, 0.0, 0.0, 0.0, 0.0, 0.0, 0.0, 0.0, 1.717237876891368E9, 0.0, 2024-06-01 03:31:16.891
53.0, 187500.0, -39595.78002640963, 187500.0, 187500.0, 187500.0, 187500.0, 187500.0, -84176.7143221753, 0.014, -0.006, 0.978, 192.0, 0.0, 0.0, 0.0, 0.0, 0.0, 0.0, 0.0, 0.0, 0.0, 1.7172378768913803E9, 0.0, 2024-06-01 03:31:16.891
54.0, 187500.0, -39578.81505236805, 187500.0, 187500.0, 187500.0, 187500.0, 187500.0, -84128.47925764075, 0.014, -0.006, 0.978, 192.0, 0.0, 0.0, 0.0, 0.0, 0.0, 0.0, 0.0, 0.0, 0.0, 1.7172378768913925E9, 0.0, 2024-06-01 03:31:16.891
55.0, 187500.0, -39474.5665162285, 187500.0, 187500.0, 187500.0, 187500.0, 187500.0, -84040.97217809822, 0.014, -0.006, 0.978, 192.0, 0.0, 0.0, 0.0, 0.0, 0.0, 0.0, 0.0, 0.0, 0.0, 1.717237876891405E9, 0.0, 2024-06-01 03:31:16.891
56.0, 187500.0, -39471.19140281575, 187500.0, 187500.0, 187500.0, 187500.0, 187500.0, -84078.85838494997, 0.014, -0.006, 0.978, 192.0, 0.0, 0.0, 0.0, 0.0, 0.0, 0.0, 0.0, 0.0, 0.0, 1.7172378768914175E9, 0.0, 2024-06-01 03:31:16.891
57.0, 187500.0, -39562.900610315875, 187500.0, 187500.0, 187500.0, 187500.0, 187500.0, -84172.08751107306, 0.014, -0.006, 0.978, 192.0, 0.0, 0.0, 0.0, 0.0, 0.0, 0.0, 0.0, 0.0, 0.0, 1.71723787689143E9, 0.0, 2024-06-01 03:31:16.891
58.0, 187500.0, -39572.042473798094, 187500.0, 187500.0, 187500.0, 187500.0, 187500.0, -84152.32856897457, 0.014, -0.006, 0.978, 192.0, 0.0, 0.0, 0.0, 0.0, 0.0, 0.0, 0.0, 0.0, 0.0, 1.7172378768914423E9, 0.0, 2024-06-01 03:31:16.891
59.0, 187500.0, -39479.372141286396, 187500.0, 187500.0, 187500.0, 187500.0, 187500.0, -84041.30745426506, 0.014, -0.006, 0.978, 192.0, 0.0, 0.0, 0.0, 0.0, 0.0, 0.0, 0.0, 0.0, 0.0, 1.717237876891455E9, 0.0, 2024-06-01 03:31:16.891
60.0, 187500.0, -39470.23027780417, 187500.0, 187500.0, 187500.0, 187500.0, 187500.0, -84050.44931774728, 0.02, -0.002, 0.974, 192.0, 0.0, 160.0, 255.0, 240.0, 30.0, 112.0, 0.0, 0.0, 0.0, 1.7172378768914673E9, 0.0, 2024-06-01 03:31:16.891
61.0, 187500.0, -39556.4856596572, 187500.0, 187500.0, 187500.0, 187500.0, 187500.0, -84158.96703707779, 0.02, -0.002, 0.974, 192.0, 0.0, 0.0, 0.0, 0.0, 0.0, 0.0, 0.0, 0.0, 0.0, 1.7172378768914804E9, 0.0, 2024-06-01 03:31:16.891
62.0, 187500.0, -39580.67024715785, 187500.0, 187500.0, 187500.0, 187500.0, 187500.0, -84165.40433948093, 0.02, -0.002, 0.974, 192.0, 0.0, 0.0, 0.0, 0.0, 0.0, 0.0, 0.0, 0.0, 0.0, 1.7172378768914928E9, 0.0, 2024-06-01 03:31:16.891
63.0, 187500.0, -39492.15733911483, 187500.0, 187500.0, 187500.0, 187500.0, 187500.0, -84056.46193700576, 0.02, -0.002, 0.974, 192.0, 0.0, 0.0, 0.0, 0.0, 0.0, 0.0, 0.0, 0.0, 0.0, 1.7172378768915126E9, 0.0, 2024-06-01 03:31:16.891
64.0, 187500.0, -39447.00681531511, 187500.0, 187500.0, 187500.0, 187500.0, 187500.0, -84042.15682055436, 0.02, -0.002, 0.974, 192.0, 0.0, 0.0, 0.0, 0.0, 0.0, 0.0, 0.0, 0.0, 0.0, 1.7172378768915253E9, 0.0, 2024-06-01 03:31:16.891
65.0, 187500.0, -39514.35262135895, 187500.0, 187500.0, 187500.0, 187500.0, 187500.0, -84145.04190028214, 0.02, -0.002, 0.974, 192.0, 0.0, 0.0, 0.0, 0.0, 0.0, 0.0, 0.0, 0.0, 0.0, 1.717237876891538E9, 0.0, 2024-06-01 03:31:16.891
66.0, 187500.0, -39569.56143016356, 187500.0, 187500.0, 187500.0, 187500.0, 187500.0, -84173.36156050701, 0.02, -0.002, 0.974, 192.0, 0.0, 0.0, 0.0, 0.0, 0.0, 0.0, 0.0, 0.0, 0.0, 1.7172378768915503E9, 0.0, 2024-06-01 03:31:16.891
67.0, 187500.0, -39492.224394348195, 187500.0, 187500.0, 187500.0, 187500.0, 187500.0, -84065.64850397689, 0.02, -0.002, 0.974, 192.0, 0.0, 0.0, 0.0, 0.0, 0.0, 0.0, 0.0, 0.0, 0.0, 1.7172378768915627E9, 0.0, 2024-06-01 03:31:16.891
68.0, 187500.0, -39428.83484707295, 187500.0, 187500.0, 187500.0, 187500.0, 187500.0, -84031.53974193809, 0.02, -0.002, 0.974, 192.0, 0.0, 0.0, 0.0, 0.0, 0.0, 0.0, 0.0, 0.0, 0.0, 1.717237876891575E9, 0.0, 2024-06-01 03:31:16.891
69.0, 187500.0, -39487.754045457135, 187500.0, 187500.0, 187500.0, 187500.0, 187500.0, -84123.85244653851, 0.018000000000000002, 0.0, 0.98, 192.0, 0.0, 144.0, 0.0, 0.0, 30.0, 160.0, 0.0, 0.0, 0.0, 1.7172378768915875E9, 0.0, 2024-06-01 03:31:16.891
70.0, 187500.0, -39569.11439527445, 187500.0, 187500.0, 187500.0, 187500.0, 187500.0, -84172.2216215398, 0.018000000000000002, 0.0, 0.98, 192.0, 0.0, 0.0, 0.0, 0.0, 0.0, 0.0, 0.0, 0.0, 0.0, 1.7172378768916E9, 0.0, 2024-06-01 03:31:16.891
71.0, 187500.0, -39516.744258015664, 187500.0, 187500.0, 187500.0, 187500.0, 187500.0, -84096.73978051422, 0.018000000000000002, 0.0, 0.98, 192.0, 0.0, 0.0, 0.0, 0.0, 0.0, 0.0, 0.0, 0.0, 0.0, 1.7172378768916123E9, 0.0, 2024-06-01 03:31:16.891
72.0, 187500.0, -39424.69977434871, 187500.0, 187500.0, 187500.0, 187500.0, 187500.0, -84030.60096867097, 0.018000000000000002, 0.0, 0.98, 192.0, 0.0, 0.0, 0.0, 0.0, 0.0, 0.0, 0.0, 0.0, 0.0, 1.7172378768916247E9, 0.0, 2024-06-01 03:31:16.891
73.0, 187500.0, -39466.27401903558, 187500.0, 187500.0, 187500.0, 187500.0, 187500.0, -84092.69411476782, 0.018000000000000002, 0.0, 0.98, 192.0, 0.0, 0.0, 0.0, 0.0, 0.0, 0.0, 0.0, 0.0, 0.0, 1.717237876891637E9, 0.0, 2024-06-01 03:31:16.891
74.0, 187500.0, -39564.46523242775, 187500.0, 187500.0, 187500.0, 187500.0, 187500.0, -84175.23910704126, 0.018000000000000002, 0.0, 0.98, 192.0, 0.0, 0.0, 0.0, 0.0, 0.0, 0.0, 0.0, 0.0, 0.0, 1.7172378768916492E9, 0.0, 2024-06-01 03:31:16.891
75.0, 187500.0, -39529.39534537737, 187500.0, 187500.0, 187500.0, 187500.0, 187500.0, -84122.15371395991, 0.018000000000000002, 0.0, 0.98, 192.0, 0.0, 0.0, 0.0, 0.0, 0.0, 0.0, 0.0, 0.0, 0.0, 1.7172378768916616E9, 0.0, 2024-06-01 03:31:16.891
76.0, 187500.0, -39430.9582627962, 187500.0, 187500.0, 187500.0, 187500.0, 187500.0, -84035.60775942895, 0.018000000000000002, 0.0, 0.98, 192.0, 0.0, 0.0, 0.0, 0.0, 0.0, 0.0, 0.0, 0.0, 0.0, 1.7172378768916736E9, 0.0, 2024-06-01 03:31:16.891
77.0, 187500.0, -39460.820193388485, 187500.0, 187500.0, 187500.0, 187500.0, 187500.0, -84095.8010072471, 0.018000000000000002, 0.0, 0.98, 192.0, 0.0, 0.0, 0.0, 0.0, 0.0, 0.0, 0.0, 0.0, 0.0, 1.717237876891686E9, 0.0, 2024-06-01 03:31:16.891
78.0, 187500.0, -39562.20770623776, 187500.0, 187500.0, 187500.0, 187500.0, 187500.0, -84194.372200295, 0.018000000000000002, 0.0, 0.98, 192.0, 0.0, 0.0, 0.0, 0.0, 0.0, 0.0, 0.0, 0.0, 0.0, 1.717237877369892E9, 0.0, 2024-06-01 03:31:17.369
79.0, 187500.0, -39553.02113926663, 187500.0, 187500.0, 187500.0, 187500.0, 187500.0, -84148.28290322816, 0.022, -0.004, 0.978, 192.0, 0.0, 176.0, 255.0, 224.0, 30.0, 144.0, 0.0, 0.0, 0.0, 1.717237877369975E9, 0.0, 2024-06-01 03:31:17.369
80.0, 187500.0, -39449.86783860539, 187500.0, 187500.0, 187500.0, 187500.0, 187500.0, -84046.38130025641, 0.022, -0.004, 0.978, 192.0, 0.0, 0.0, 0.0, 0.0, 0.0, 0.0, 0.0, 0.0, 0.0, 1.7172378773700082E9, 0.0, 2024-06-01 03:31:17.370
81.0, 187500.0, -39447.342091481936, 187500.0, 187500.0, 187500.0, 187500.0, 187500.0, -84072.1975651023, 0.022, -0.004, 0.978, 192.0, 0.0, 0.0, 0.0, 0.0, 0.0, 0.0, 0.0, 0.0, 0.0, 1.7172378773700373E9, 0.0, 2024-06-01 03:31:17.370
82.0, 187500.0, -39547.030871752606, 187500.0, 187500.0, 187500.0, 187500.0, 187500.0, -84175.12734831899, 0.022, -0.004, 0.978, 192.0, 0.0, 0.0, 0.0, 0.0, 0.0, 0.0, 0.0, 0.0, 0.0, 1.7172378773700664E9, 0.0, 2024-06-01 03:31:17.370
83.0, 187500.0, -39552.79762182208, 187500.0, 187500.0, 187500.0, 187500.0, 187500.0, -84156.24012425424, 0.022, -0.004, 0.978, 192.0, 0.0, 0.0, 0.0, 0.0, 0.0, 0.0, 0.0, 0.0, 0.0, 1.7172378773700917E9, 0.0, 2024-06-01 03:31:17.370
84.0, 187500.0, -39450.18076302776, 187500.0, 187500.0, 187500.0, 187500.0, 187500.0, -84060.41819577434, 0.022, -0.004, 0.978, 192.0, 0.0, 0.0, 0.0, 0.0, 0.0, 0.0, 0.0, 0.0, 0.0, 1.7172378773701172E9, 0.0, 2024-06-01 03:31:17.370
85.0, 187500.0, -39423.26926270357, 187500.0, 187500.0, 187500.0, 187500.0, 187500.0, -84080.02067566165, 0.022, -0.004, 0.978, 192.0, 0.0, 0.0, 0.0, 0.0, 0.0, 0.0, 0.0, 0.0, 0.0, 1.7172378773701355E9, 0.0, 2024-06-01 03:31:17.370
86.0, 187500.0, -39526.28845289808, 187500.0, 187500.0, 187500.0, 187500.0, 187500.0, -84173.5180227182, 0.022, -0.004, 0.978, 192.0, 0.0, 0.0, 0.0, 0.0, 0.0, 0.0, 0.0, 0.0, 0.0, 1.717237877370149E9, 0.0, 2024-06-01 03:31:17.370
87.0, 187500.0, -39565.96279930625, 187500.0, 187500.0, 187500.0, 187500.0, 187500.0, -84174.18857505186, 0.022, -0.004, 0.978, 192.0, 0.0, 0.0, 0.0, 0.0, 0.0, 0.0, 0.0, 0.0, 0.0, 1.7172378773701625E9, 0.0, 2024-06-01 03:31:17.370
88.0, 187500.0, -39472.2642865496, 187500.0, 187500.0, 187500.0, 187500.0, 187500.0, -84070.69999822379, 0.022, -0.004, 0.978, 192.0, 0.0, 0.0, 0.0, 0.0, 0.0, 0.0, 0.0, 0.0, 0.0, 1.7172378773701758E9, 0.0, 2024-06-01 03:31:17.370
89.0, 187500.0, -39426.97965228315, 187500.0, 187500.0, 187500.0, 187500.0, 187500.0, -84046.26954153413, 0.02, -0.002, 0.978, 192.0, 0.0, 160.0, 255.0, 240.0, 30.0, 144.0, 0.0, 0.0, 0.0, 1.7172378773701887E9, 0.0, 2024-06-01 03:31:17.370
90.0, 187500.0, -39506.08247591049, 187500.0, 187500.0, 187500.0, 187500.0, 187500.0, -84135.96709203329, 0.02, -0.002, 0.978, 192.0, 0.0, 0.0, 0.0, 0.0, 0.0, 0.0, 0.0, 0.0, 0.0, 1.7172378773702023E9, 0.0, 2024-06-01 03:31:17.370
91.0, 187500.0, -39555.479831156714, 187500.0, 187500.0, 187500.0, 187500.0, 187500.0, -84168.53358370467, 0.02, -0.002, 0.978, 192.0, 0.0, 0.0, 0.0, 0.0, 0.0, 0.0, 0.0, 0.0, 0.0, 1.7172378773702157E9, 0.0, 2024-06-01 03:31:17.370
92.0, 187500.0, -39477.80751917452, 187500.0, 187500.0, 187500.0, 187500.0, 187500.0, -84101.65716429439, 0.02, -0.002, 0.978, 192.0, 0.0, 0.0, 0.0, 0.0, 0.0, 0.0, 0.0, 0.0, 0.0, 1.7172378773702292E9, 0.0, 2024-06-01 03:31:17.370
93.0, 187500.0, -39412.69688757621, 187500.0, 187500.0, 187500.0, 187500.0, 187500.0, -84057.11013759497, 0.02, -0.002, 0.978, 192.0, 0.0, 0.0, 0.0, 0.0, 0.0, 0.0, 0.0, 0.0, 0.0, 1.717237877370242E9, 0.0, 2024-06-01 03:31:17.370
94.0, 187500.0, -39475.77351042909, 187500.0, 187500.0, 187500.0, 187500.0, 187500.0, -84138.7610600902, 0.02, -0.002, 0.978, 192.0, 0.0, 0.0, 0.0, 0.0, 0.0, 0.0, 0.0, 0.0, 0.0, 1.7172378773702672E9, 0.0, 2024-06-01 03:31:17.370
95.0, 187500.0, -39554.69752010078, 187500.0, 187500.0, 187500.0, 187500.0, 187500.0, -84189.05248511463, 0.02, -0.002, 0.978, 192.0, 0.0, 0.0, 0.0, 0.0, 0.0, 0.0, 0.0, 0.0, 0.0, 1.7172378773702812E9, 0.0, 2024-06-01 03:31:17.370
96.0, 187500.0, -39502.95323168674, 187500.0, 187500.0, 187500.0, 187500.0, 187500.0, -84094.88458572443, 0.02, -0.002, 0.978, 192.0, 0.0, 0.0, 0.0, 0.0, 0.0, 0.0, 0.0, 0.0, 0.0, 1.7172378773702953E9, 0.0, 2024-06-01 03:31:17.370
97.0, 187500.0, -39415.244986444115, 187500.0, 187500.0, 187500.0, 187500.0, 187500.0, -84024.83421860149, 0.02, -0.002, 0.978, 192.0, 0.0, 0.0, 0.0, 0.0, 0.0, 0.0, 0.0, 0.0, 0.0, 1.7172378773703094E9, 0.0, 2024-06-01 03:31:17.370
98.0, 187500.0, -39455.589885185946, 187500.0, 187500.0, 187500.0, 187500.0, 187500.0, -84118.7562488027, 0.02, -0.002, 0.978, 192.0, 0.0, 0.0, 0.0, 0.0, 0.0, 0.0, 0.0, 0.0, 0.0, 1.7172378773703244E9, 0.0, 2024-06-01 03:31:17.370
99.0, 187500.0, -39550.20481946526, 187500.0, 187500.0, 187500.0, 187500.0, 187500.0, -84212.6782790039, 0.022, -0.004, 0.982, 192.0, 0.0, 176.0, 255.0, 224.0, 30.0, 176.0, 0.0, 0.0, 0.0, 1.7172378773703375E9, 0.0, 2024-06-01 03:31:17.370
100.0, 187500.0, -39525.550845331054, 187500.0, 187500.0, 187500.0, 187500.0, 187500.0, -84157.78239462167, 0.022, -0.004, 0.982, 192.0, 0.0, 0.0, 0.0, 0.0, 0.0, 0.0, 0.0, 0.0, 0.0, 1.717237877370352E9, 0.0, 2024-06-01 03:31:17.370
101.0, 187500.0, -39417.211939956185, 187500.0, 187500.0, 187500.0, 187500.0, 187500.0, -84071.32584706854, 0.022, -0.004, 0.982, 192.0, 0.0, 0.0, 0.0, 0.0, 0.0, 0.0, 0.0, 0.0, 0.0, 1.7172378773703651E9, 0.0, 2024-06-01 03:31:17.370
102.0, 187500.0, -39436.345033209924, 187500.0, 187500.0, 187500.0, 187500.0, 187500.0, -84102.64064105043, 0.022, -0.004, 0.982, 192.0, 0.0, 0.0, 0.0, 0.0, 0.0, 0.0, 0.0, 0.0, 0.0, 1.7172378773703785E9, 0.0, 2024-06-01 03:31:17.370
103.0, 187500.0, -39540.951197260765, 187500.0, 187500.0, 187500.0, 187500.0, 187500.0, -84177.60839195352, 0.022, -0.004, 0.982, 192.0, 0.0, 0.0, 0.0, 0.0, 0.0, 0.0, 0.0, 0.0, 0.0, 1.7172378773703914E9, 0.0, 2024-06-01 03:31:17.370
104.0, 187500.0, -39529.64121456638, 187500.0, 187500.0, 187500.0, 187500.0, 187500.0, -84142.22558048076, 0.022, -0.004, 0.982, 192.0, 0.0, 0.0, 0.0, 0.0, 0.0, 0.0, 0.0, 0.0, 0.0, 1.7172378773704045E9, 0.0, 2024-06-01 03:31:17.370
105.0, 187500.0, -39420.341184179924, 187500.0, 187500.0, 187500.0, 187500.0, 187500.0, -84040.6369019314, 0.022, -0.004, 0.982, 192.0, 0.0, 0.0, 0.0, 0.0, 0.0, 0.0, 0.0, 0.0, 0.0, 1.7172378773704174E9, 0.0, 2024-06-01 03:31:17.370
106.0, 187500.0, -39418.06130624549, 187500.0, 187500.0, 187500.0, 187500.0, 187500.0, -84069.7388732122, 0.022, -0.004, 0.982, 192.0, 0.0, 0.0, 0.0, 0.0, 0.0, 0.0, 0.0, 0.0, 0.0, 1.7172378773704307E9, 0.0, 2024-06-01 03:31:17.370
107.0, 187500.0, -39517.07953418249, 187500.0, 187500.0, 187500.0, 187500.0, 187500.0, -84188.2701740587, 0.022, -0.004, 0.982, 192.0, 0.0, 0.0, 0.0, 0.0, 0.0, 0.0, 0.0, 0.0, 0.0, 1.7172378773704436E9, 0.0, 2024-06-01 03:31:17.370
108.0, 187500.0, -39542.71698507273, 187500.0, 187500.0, 187500.0, 187500.0, 187500.0, -84181.22937455527, 0.022, -0.004, 0.982, 192.0, 0.0, 0.0, 0.0, 0.0, 0.0, 0.0, 0.0, 0.0, 0.0, 1.7172378773704567E9, 0.0, 2024-06-01 03:31:17.370
109.0, 187500.0, -39448.79495487153, 187500.0, 187500.0, 187500.0, 187500.0, 187500.0, -84082.61347801847, 0.018000000000000002, -0.006, 0.984, 192.0, 0.0, 144.0, 255.0, 208.0, 30.0, 192.0, 0.0, 0.0, 0.0, 1.7172378773704789E9, 0.0, 2024-06-01 03:31:17.370
110.0, 187500.0, -39417.211939956185, 187500.0, 187500.0, 187500.0, 187500.0, 187500.0, -84081.96527742926, 0.018000000000000002, -0.006, 0.984, 192.0, 0.0, 0.0, 0.0, 0.0, 0.0, 0.0, 0.0, 0.0, 0.0, 1.7172378773704925E9, 0.0, 2024-06-01 03:31:17.370
111.0, 187500.0, -39494.43721704927, 187500.0, 187500.0, 187500.0, 187500.0, 187500.0, -84181.18467106637, 0.018000000000000002, -0.006, 0.984, 192.0, 0.0, 0.0, 0.0, 0.0, 0.0, 0.0, 0.0, 0.0, 0.0, 1.7172378773705056E9, 0.0, 2024-06-01 03:31:17.370
112.0, 187500.0, -39540.14653446037, 187500.0, 187500.0, 187500.0, 187500.0, 187500.0, -84194.90864216193, 0.018000000000000002, -0.006, 0.984, 192.0, 0.0, 0.0, 0.0, 0.0, 0.0, 0.0, 0.0, 0.0, 0.0, 1.7172378773705187E9, 0.0, 2024-06-01 03:31:17.370
113.0, 187500.0, -39452.99708282913, 187500.0, 187500.0, 187500.0, 187500.0, 187500.0, -84085.25098386419, 0.018000000000000002, -0.006, 0.984, 192.0, 0.0, 0.0, 0.0, 0.0, 0.0, 0.0, 0.0, 0.0, 0.0, 1.7172378773705318E9, 0.0, 2024-06-01 03:31:17.370
114.0, 187500.0, -39415.04382074402, 187500.0, 187500.0, 187500.0, 187500.0, 187500.0, -84068.0401406336, 0.018000000000000002, -0.006, 0.984, 192.0, 0.0, 0.0, 0.0, 0.0, 0.0, 0.0, 0.0, 0.0, 0.0, 1.717237877370545E9, 0.0, 2024-06-01 03:31:17.370
115.0, 187500.0, -39498.25936535113, 187500.0, 187500.0, 187500.0, 187500.0, 187500.0, -84173.80859539611, 0.018000000000000002, -0.006, 0.984, 192.0, 0.0, 0.0, 0.0, 0.0, 0.0, 0.0, 0.0, 0.0, 0.0, 1.717237877370558E9, 0.0, 2024-06-01 03:31:17.370
116.0, 187500.0, -39555.81510732354, 187500.0, 187500.0, 187500.0, 187500.0, 187500.0, -84212.49946504825, 0.018000000000000002, -0.006, 0.984, 192.0, 0.0, 0.0, 0.0, 0.0, 0.0, 0.0, 0.0, 0.0, 0.0, 1.717237877370571E9, 0.0, 2024-06-01 03:31:17.370
117.0, 187500.0, -39478.07574010798, 187500.0, 187500.0, 187500.0, 187500.0, 187500.0, -84108.854426009, 0.018000000000000002, -0.006, 0.984, 192.0, 0.0, 0.0, 0.0, 0.0, 0.0, 0.0, 0.0, 0.0, 0.0, 1.7172378773705835E9, 0.0, 2024-06-01 03:31:17.370
118.0, 187500.0, -39400.71635254817, 187500.0, 187500.0, 187500.0, 187500.0, 187500.0, -84062.09457660849, 0.018000000000000002, -0.006, 0.984, 192.0, 0.0, 0.0, 0.0, 0.0, 0.0, 0.0, 0.0, 0.0, 0.0, 1.717237877370597E9, 0.0, 2024-06-01 03:31:17.370
119.0, 187500.0, -39464.44117599025, 187500.0, 187500.0, 187500.0, 187500.0, 187500.0, -84126.40054540642, 0.02, -0.002, 0.984, 192.0, 0.0, 160.0, 255.0, 240.0, 30.0, 192.0, 0.0, 0.0, 0.0, 1.7172378773706098E9, 0.0, 2024-06-01 03:31:17.370
120.0, 187500.0, -39544.102793228965, 187500.0, 187500.0, 187500.0, 187500.0, 187500.0, -84186.25851705772, 0.02, -0.002, 0.984, 192.0, 0.0, 0.0, 0.0, 0.0, 0.0, 0.0, 0.0, 0.0, 0.0, 1.7172378773706236E9, 0.0, 2024-06-01 03:31:17.370
121.0, 187500.0, -39489.9221646693, 187500.0, 187500.0, 187500.0, 187500.0, 187500.0, -84122.15371395991, 0.02, -0.002, 0.984, 192.0, 0.0, 0.0, 0.0, 0.0, 0.0, 0.0, 0.0, 0.0, 0.0, 1.7172378773706367E9, 0.0, 2024-06-01 03:31:17.370
122.0, 187500.0, -39389.741646020615, 187500.0, 187500.0, 187500.0, 187500.0, 187500.0, -84056.35017828348, 0.02, -0.002, 0.984, 192.0, 0.0, 0.0, 0.0, 0.0, 0.0, 0.0, 0.0, 0.0, 0.0, 1.71723787737065E9, 0.0, 2024-06-01 03:31:17.370
123.0, 187500.0, -39430.26535871808, 187500.0, 187500.0, 187500.0, 187500.0, 187500.0, -84123.69598432732, 0.02, -0.002, 0.984, 192.0, 0.0, 0.0, 0.0, 0.0, 0.0, 0.0, 0.0, 0.0, 0.0, 1.7172378773706627E9, 0.0, 2024-06-01 03:31:17.370
124.0, 187500.0, -39521.28166214009, 187500.0, 187500.0, 187500.0, 187500.0, 187500.0, -84189.18659558137, 0.02, -0.002, 0.984, 192.0, 0.0, 0.0, 0.0, 0.0, 0.0, 0.0, 0.0, 0.0, 0.0, 1.717237877370684E9, 0.0, 2024-06-01 03:31:17.370
125.0, 187500.0, -39500.02515316309, 187500.0, 187500.0, 187500.0, 187500.0, 187500.0, -84148.32760671707, 0.02, -0.002, 0.984, 192.0, 0.0, 0.0, 0.0, 0.0, 0.0, 0.0, 0.0, 0.0, 0.0, 1.7172378773706973E9, 0.0, 2024-06-01 03:31:17.370
126.0, 187500.0, -39410.640527086325, 187500.0, 187500.0, 187500.0, 187500.0, 187500.0, -84066.90020166639, 0.02, -0.002, 0.984, 192.0, 0.0, 0.0, 0.0, 0.0, 0.0, 0.0, 0.0, 0.0, 0.0, 1.7172378773707104E9, 0.0, 2024-06-01 03:31:17.370
127.0, 187500.0, -39429.728916851156, 187500.0, 187500.0, 187500.0, 187500.0, 187500.0, -84115.62700457896, 0.02, -0.002, 0.984, 192.0, 0.0, 0.0, 0.0, 0.0, 0.0, 0.0, 0.0, 0.0, 0.0, 1.7172378773707232E9, 0.0, 2024-06-01 03:31:17.370
128.0, 187500.0, -39524.72383078621, 187500.0, 187500.0, 187500.0, 187500.0, 187500.0, -84201.59181375407, 0.02, -0.002, 0.984, 192.0, 0.0, 0.0, 0.0, 0.0, 0.0, 0.0, 0.0, 0.0, 0.0, 1.7172378773707364E9, 0.0, 2024-06-01 03:31:17.370
129.0, 187500.0, -39530.15530468885, 187500.0, 187500.0, 187500.0, 187500.0, 187500.0, -84172.24397328425, 0.016, -0.004, 0.982, 192.0, 0.0, 128.0, 255.0, 224.0, 30.0, 176.0, 0.0, 0.0, 0.0, 1.7172378773707497E9, 0.0, 2024-06-01 03:31:17.370
130.0, 187500.0, -39441.41887920128, 187500.0, 187500.0, 187500.0, 187500.0, 187500.0, -84078.7466262277, 0.016, -0.004, 0.982, 192.0, 0.0, 0.0, 0.0, 0.0, 0.0, 0.0, 0.0, 0.0, 0.0, 1.717237877370763E9, 0.0, 2024-06-01 03:31:17.370
131.0, 187500.0, -39424.58801562643, 187500.0, 187500.0, 187500.0, 187500.0, 187500.0, -84103.4453038508, 0.016, -0.004, 0.982, 192.0, 0.0, 0.0, 0.0, 0.0, 0.0, 0.0, 0.0, 0.0, 0.0, 1.7172378773707762E9, 0.0, 2024-06-01 03:31:17.370
132.0, 187500.0, -39504.27198460961, 187500.0, 187500.0, 187500.0, 187500.0, 187500.0, -84202.9776219103, 0.016, -0.004, 0.982, 192.0, 0.0, 0.0, 0.0, 0.0, 0.0, 0.0, 0.0, 0.0, 0.0, 1.7172378773707893E9, 0.0, 2024-06-01 03:31:17.370
133.0, 187500.0, -39531.87638901191, 187500.0, 187500.0, 187500.0, 187500.0, 187500.0, -84197.68025847439, 0.016, -0.004, 0.982, 192.0, 0.0, 0.0, 0.0, 0.0, 0.0, 0.0, 0.0, 0.0, 0.0, 1.7172378773708024E9, 0.0, 2024-06-01 03:31:17.370
134.0, 187500.0, -39432.07585001896, 187500.0, 187500.0, 187500.0, 187500.0, 187500.0, -84091.53182405613, 0.016, -0.004, 0.982, 192.0, 0.0, 0.0, 0.0, 0.0, 0.0, 0.0, 0.0, 0.0, 0.0, 1.7172378773708158E9, 0.0, 2024-06-01 03:31:17.370
135.0, 187500.0, -39398.88350950283, 187500.0, 187500.0, 187500.0, 187500.0, 187500.0, -84091.95650720078, 0.016, -0.004, 0.982, 192.0, 0.0, 0.0, 0.0, 0.0, 0.0, 0.0, 0.0, 0.0, 0.0, 1.717237877370829E9, 0.0, 2024-06-01 03:31:17.370
136.0, 187500.0, -39495.577156016494, 187500.0, 187500.0, 187500.0, 187500.0, 187500.0, -84196.36150555153, 0.016, -0.004, 0.982, 192.0, 0.0, 0.0, 0.0, 0.0, 0.0, 0.0, 0.0, 0.0, 0.0, 1.7172378773708425E9, 0.0, 2024-06-01 03:31:17.370
137.0, 187500.0, -39541.241769938686, 187500.0, 187500.0, 187500.0, 187500.0, 187500.0, -84196.98735439627, 0.016, -0.004, 0.982, 192.0, 0.0, 0.0, 0.0, 0.0, 0.0, 0.0, 0.0, 0.0, 0.0, 1.7172378773708556E9, 0.0, 2024-06-01 03:31:17.370
138.0, 187500.0, -39457.266266020095, 187500.0, 187500.0, 187500.0, 187500.0, 187500.0, -84088.17906238783, 0.016, -0.004, 0.982, 192.0, 0.0, 0.0, 0.0, 0.0, 0.0, 0.0, 0.0, 0.0, 0.0, 1.7172378773708687E9, 0.0, 2024-06-01 03:31:17.370
139.0, 187500.0, -39402.593899082414, 187500.0, 187500.0, 187500.0, 187500.0, 187500.0, -84073.7398354697, 0.016, -0.006, 0.986, 192.0, 0.0, 128.0, 255.0, 208.0, 30.0, 208.0, 0.0, 0.0, 0.0, 1.7172378773708897E9, 0.0, 2024-06-01 03:31:17.370
140.0, 187500.0, -39474.07477785049, 187500.0, 187500.0, 187500.0, 187500.0, 187500.0, -84168.95826684932, 0.016, -0.006, 0.986, 192.0, 0.0, 0.0, 0.0, 0.0, 0.0, 0.0, 0.0, 0.0, 0.0, 1.7172378773709035E9, 0.0, 2024-06-01 03:31:17.370
141.0, 187500.0, -39538.984243748695, 187500.0, 187500.0, 187500.0, 187500.0, 187500.0, -84201.9717934098, 0.016, -0.006, 0.986, 192.0, 0.0, 0.0, 0.0, 0.0, 0.0, 0.0, 0.0, 0.0, 0.0, 1.7172378773709168E9, 0.0, 2024-06-01 03:31:17.370
142.0, 187500.0, -39469.53737372606, 187500.0, 187500.0, 187500.0, 187500.0, 187500.0, -84127.85340879601, 0.016, -0.006, 0.986, 192.0, 0.0, 0.0, 0.0, 0.0, 0.0, 0.0, 0.0, 0.0, 0.0, 1.71723787737093E9, 0.0, 2024-06-01 03:31:17.370
143.0, 187500.0, -39391.08275068793, 187500.0, 187500.0, 187500.0, 187500.0, 187500.0, -84082.05468440708, 0.016, -0.006, 0.986, 192.0, 0.0, 0.0, 0.0, 0.0, 0.0, 0.0, 0.0, 0.0, 0.0, 1.7172378773709433E9, 0.0, 2024-06-01 03:31:17.370
144.0, 187500.0, -39445.84452460343, 187500.0, 187500.0, 187500.0, 187500.0, 187500.0, -84156.59775216553, 0.016, -0.006, 0.986, 192.0, 0.0, 0.0, 0.0, 0.0, 0.0, 0.0, 0.0, 0.0, 0.0, 1.7172378773709567E9, 0.0, 2024-06-01 03:31:17.370
145.0, 187500.0, -39530.602339577956, 187500.0, 187500.0, 187500.0, 187500.0, 187500.0, -84220.41198258543, 0.016, -0.006, 0.986, 192.0, 0.0, 0.0, 0.0, 0.0, 0.0, 0.0, 0.0, 0.0, 0.0, 1.7172378773709698E9, 0.0, 2024-06-01 03:31:17.370
146.0, 187500.0, -39484.62480123339, 187500.0, 187500.0, 187500.0, 187500.0, 187500.0, -84148.81934509508, 0.016, -0.006, 0.986, 192.0, 0.0, 0.0, 0.0, 0.0, 0.0, 0.0, 0.0, 0.0, 0.0, 1.717237877370983E9, 0.0, 2024-06-01 03:31:17.370
147.0, 187500.0, -39401.27514615955, 187500.0, 187500.0, 187500.0, 187500.0, 187500.0, -84070.0965011235, 0.016, -0.006, 0.986, 192.0, 0.0, 0.0, 0.0, 0.0, 0.0, 0.0, 0.0, 0.0, 0.0, 1.7172378773709962E9, 0.0, 2024-06-01 03:31:17.370
148.0, 187500.0, -39442.24589374613, 187500.0, 187500.0, 187500.0, 187500.0, 187500.0, -84128.21103670729, 0.016, -0.006, 0.986, 192.0, 0.0, 0.0, 0.0, 0.0, 0.0, 0.0, 0.0, 0.0, 0.0, 1.7172378773710096E9, 0.0, 2024-06-01 03:31:17.371
149.0, 187500.0, -39525.550845331054, 187500.0, 187500.0, 187500.0, 187500.0, 187500.0, -84207.2244533568, 0.018000000000000002, -0.002, 0.988, 192.0, 0.0, 144.0, 255.0, 240.0, 30.0, 224.0, 0.0, 0.0, 0.0, 1.7172378773710227E9, 0.0, 2024-06-01 03:31:17.371
150.0, 187500.0, -39501.14274038586, 187500.0, 187500.0, 187500.0, 187500.0, 187500.0, -84163.05740631312, 0.018000000000000002, -0.002, 0.988, 192.0, 0.0, 0.0, 0.0, 0.0, 0.0, 0.0, 0.0, 0.0, 0.0, 1.7172378773710363E9, 0.0, 2024-06-01 03:31:17.371
151.0, 187500.0, -39403.66678281627, 187500.0, 187500.0, 187500.0, 187500.0, 187500.0, -84080.6018210175, 0.018000000000000002, -0.002, 0.988, 192.0, 0.0, 0.0, 0.0, 0.0, 0.0, 0.0, 0.0, 0.0, 0.0, 1.7172378773710496E9, 0.0, 2024-06-01 03:31:17.371
152.0, 187500.0, -39422.62106211437, 187500.0, 187500.0, 187500.0, 187500.0, 187500.0, -84112.6542225664, 0.018000000000000002, -0.002, 0.988, 192.0, 0.0, 0.0, 0.0, 0.0, 0.0, 0.0, 0.0, 0.0, 0.0, 1.7172378773710628E9, 0.0, 2024-06-01 03:31:17.371
153.0, 187500.0, -39527.6295575654, 187500.0, 187500.0, 187500.0, 187500.0, 187500.0, -84221.01547968572, 0.018000000000000002, -0.002, 0.988, 192.0, 0.0, 0.0, 0.0, 0.0, 0.0, 0.0, 0.0, 0.0, 0.0, 1.717237877371076E9, 0.0, 2024-06-01 03:31:17.371
154.0, 187500.0, -39523.24861565216, 187500.0, 187500.0, 187500.0, 187500.0, 187500.0, -84200.0718951311, 0.018000000000000002, -0.002, 0.988, 192.0, 0.0, 0.0, 0.0, 0.0, 0.0, 0.0, 0.0, 0.0, 0.0, 1.717237877371097E9, 0.0, 2024-06-01 03:31:17.371
155.0, 187500.0, -39416.295518433515, 187500.0, 187500.0, 187500.0, 187500.0, 187500.0, -84105.47931259625, 0.018000000000000002, -0.002, 0.988, 192.0, 0.0, 0.0, 0.0, 0.0, 0.0, 0.0, 0.0, 0.0, 0.0, 1.7172378773711107E9, 0.0, 2024-06-01 03:31:17.371
156.0, 187500.0, -39416.20611145569, 187500.0, 187500.0, 187500.0, 187500.0, 187500.0, -84131.87672279797, 0.018000000000000002, -0.002, 0.988, 192.0, 0.0, 0.0, 0.0, 0.0, 0.0, 0.0, 0.0, 0.0, 0.0, 1.717237877371124E9, 0.0, 2024-06-01 03:31:17.371
157.0, 187500.0, -39506.44010382177, 187500.0, 187500.0, 187500.0, 187500.0, 187500.0, -84217.84153197307, 0.018000000000000002, -0.002, 0.988, 192.0, 0.0, 0.0, 0.0, 0.0, 0.0, 0.0, 0.0, 0.0, 0.0, 1.7172378773711371E9, 0.0, 2024-06-01 03:31:17.371
158.0, 187500.0, -39527.24957790966, 187500.0, 187500.0, 187500.0, 187500.0, 187500.0, -84202.46353178783, 0.018000000000000002, -0.002, 0.988, 192.0, 0.0, 0.0, 0.0, 0.0, 0.0, 0.0, 0.0, 0.0, 0.0, 1.7172378773711505E9, 0.0, 2024-06-01 03:31:17.371
159.0, 187500.0, -39433.52871340856, 187500.0, 187500.0, 187500.0, 187500.0, 187500.0, -84105.56871957406, 0.024, -0.004, 0.988, 192.0, 0.0, 192.0, 255.0, 224.0, 30.0, 224.0, 0.0, 0.0, 0.0, 1.7172378773711636E9, 0.0, 2024-06-01 03:31:17.371
160.0, 187500.0, -39399.75522753659, 187500.0, 187500.0, 187500.0, 187500.0, 187500.0, -84116.78929529063, 0.024, -0.004, 0.988, 192.0, 0.0, 0.0, 0.0, 0.0, 0.0, 0.0, 0.0, 0.0, 0.0, 1.7172378773711772E9, 0.0, 2024-06-01 03:31:17.371
161.0, 187500.0, -39481.42850177628, 187500.0, 187500.0, 187500.0, 187500.0, 187500.0, -84209.66079350244, 0.024, -0.004, 0.988, 192.0, 0.0, 0.0, 0.0, 0.0, 0.0, 0.0, 0.0, 0.0, 0.0, 1.7172378773711905E9, 0.0, 2024-06-01 03:31:17.371
162.0, 187500.0, -39532.21166517874, 187500.0, 187500.0, 187500.0, 187500.0, 187500.0, -84225.17290415442, 0.024, -0.004, 0.988, 192.0, 0.0, 0.0, 0.0, 0.0, 0.0, 0.0, 0.0, 0.0, 0.0, 1.717237877371204E9, 0.0, 2024-06-01 03:31:17.371
163.0, 187500.0, -39450.337225238945, 187500.0, 187500.0, 187500.0, 187500.0, 187500.0, -84132.23435070924, 0.024, -0.004, 0.988, 192.0, 0.0, 0.0, 0.0, 0.0, 0.0, 0.0, 0.0, 0.0, 0.0, 1.7172378773712173E9, 0.0, 2024-06-01 03:31:17.371
164.0, 187500.0, -39396.089541445916, 187500.0, 187500.0, 187500.0, 187500.0, 187500.0, -84088.46963506576, 0.024, -0.004, 0.988, 192.0, 0.0, 0.0, 0.0, 0.0, 0.0, 0.0, 0.0, 0.0, 0.0, 1.7172378773712304E9, 0.0, 2024-06-01 03:31:17.371
165.0, 187500.0, -39470.7667196711, 187500.0, 187500.0, 187500.0, 187500.0, 187500.0, -84182.21285131131, 0.024, -0.004, 0.988, 192.0, 0.0, 0.0, 0.0, 0.0, 0.0, 0.0, 0.0, 0.0, 0.0, 1.7172378773712437E9, 0.0, 2024-06-01 03:31:17.371
166.0, 187500.0, -39543.946331017774, 187500.0, 187500.0, 187500.0, 187500.0, 187500.0, -84250.07274747762, 0.024, -0.004, 0.988, 192.0, 0.0, 0.0, 0.0, 0.0, 0.0, 0.0, 0.0, 0.0, 0.0, 1.7172378773712568E9, 0.0, 2024-06-01 03:31:17.371
167.0, 187500.0, -39475.14766158434, 187500.0, 187500.0, 187500.0, 187500.0, 187500.0, -84171.28284827266, 0.024, -0.004, 0.988, 192.0, 0.0, 0.0, 0.0, 0.0, 0.0, 0.0, 0.0, 0.0, 0.0, 1.71723787737127E9, 0.0, 2024-06-01 03:31:17.371
168.0, 187500.0, -39388.534651820024, 187500.0, 187500.0, 187500.0, 187500.0, 187500.0, -84103.71352478428, 0.024, -0.004, 0.988, 192.0, 0.0, 0.0, 0.0, 0.0, 0.0, 0.0, 0.0, 0.0, 0.0, 1.7172378773712833E9, 0.0, 2024-06-01 03:31:17.371
169.0, 187500.0, -39450.04665256103, 187500.0, 187500.0, 187500.0, 187500.0, 187500.0, -84181.05056059964, 0.026000000000000002, -0.002, 0.988, 192.0, 0.0, 208.0, 255.0, 240.0, 30.0, 224.0, 0.0, 0.0, 0.0, 1.7172378773713038E9, 0.0, 2024-06-01 03:31:17.371
170.0, 187500.0, -39534.75976404664, 187500.0, 187500.0, 187500.0, 187500.0, 187500.0, -84244.9318462529, 0.026000000000000002, -0.002, 0.988, 192.0, 0.0, 0.0, 0.0, 0.0, 0.0, 0.0, 0.0, 0.0, 0.0, 1.7172378773713176E9, 0.0, 2024-06-01 03:31:17.371
171.0, 187500.0, -39491.173862358795, 187500.0, 187500.0, 187500.0, 187500.0, 187500.0, -84175.26145878571, 0.026000000000000002, -0.002, 0.988, 192.0, 0.0, 0.0, 0.0, 0.0, 0.0, 0.0, 0.0, 0.0, 0.0, 1.7172378773713307E9, 0.0, 2024-06-01 03:31:17.371
172.0, 187500.0, -39400.53753859252, 187500.0, 187500.0, 187500.0, 187500.0, 187500.0, -84089.29664961061, 0.026000000000000002, -0.002, 0.988, 192.0, 0.0, 0.0, 0.0, 0.0, 0.0, 0.0, 0.0, 0.0, 0.0, 1.717237877371344E9, 0.0, 2024-06-01 03:31:17.371
173.0, 187500.0, -39440.72597512317, 187500.0, 187500.0, 187500.0, 187500.0, 187500.0, -84151.99329280773, 0.026000000000000002, -0.002, 0.988, 192.0, 0.0, 0.0, 0.0, 0.0, 0.0, 0.0, 0.0, 0.0, 0.0, 1.7172378773713572E9, 0.0, 2024-06-01 03:31:17.371
174.0, 187500.0, -39530.64704306687, 187500.0, 187500.0, 187500.0, 187500.0, 187500.0, -84253.89489577948, 0.026000000000000002, -0.002, 0.988, 192.0, 0.0, 0.0, 0.0, 0.0, 0.0, 0.0, 0.0, 0.0, 0.0, 1.7172378773713703E9, 0.0, 2024-06-01 03:31:17.371
175.0, 187500.0, -39505.568385788014, 187500.0, 187500.0, 187500.0, 187500.0, 187500.0, -84213.19236912637, 0.026000000000000002, -0.002, 0.988, 192.0, 0.0, 0.0, 0.0, 0.0, 0.0, 0.0, 0.0, 0.0, 0.0, 1.7172378773713837E9, 0.0, 2024-06-01 03:31:17.371
176.0, 187500.0, -39403.26445141607, 187500.0, 187500.0, 187500.0, 187500.0, 187500.0, -84112.38600163294, 0.026000000000000002, -0.002, 0.988, 192.0, 0.0, 0.0, 0.0, 0.0, 0.0, 0.0, 0.0, 0.0, 0.0, 1.717237877371397E9, 0.0, 2024-06-01 03:31:17.371
177.0, 187500.0, -39425.43738191573, 187500.0, 187500.0, 187500.0, 187500.0, 187500.0, -84166.4101679814, 0.026000000000000002, -0.002, 0.988, 192.0, 0.0, 0.0, 0.0, 0.0, 0.0, 0.0, 0.0, 0.0, 0.0, 1.71723787737141E9, 0.0, 2024-06-01 03:31:17.371
178.0, 187500.0, -39524.522665086115, 187500.0, 187500.0, 187500.0, 187500.0, 187500.0, -84265.49545115179, 0.026000000000000002, -0.002, 0.988, 192.0, 0.0, 0.0, 0.0, 0.0, 0.0, 0.0, 0.0, 0.0, 0.0, 1.7172378773714232E9, 0.0, 2024-06-01 03:31:17.371
179.0, 187500.0, -39532.0328512231, 187500.0, 187500.0, 187500.0, 187500.0, 187500.0, -84240.4838491063, 0.022, 0.008, 0.98, 192.0, 0.0, 176.0, 0.0, 64.0, 30.0, 160.0, 0.0, 0.0, 0.0, 1.7172378773714364E9, 0.0, 2024-06-01 03:31:17.371
180.0, 187500.0, -39428.07488776146, 187500.0, 187500.0, 187500.0, 187500.0, 187500.0, -84134.26835945468, 0.022, 0.008, 0.98, 192.0, 0.0, 0.0, 0.0, 0.0, 0.0, 0.0, 0.0, 0.0, 0.0, 1.7172378773714504E9, 0.0, 2024-06-01 03:31:17.371
181.0, 187500.0, -39413.47919863215, 187500.0, 187500.0, 187500.0, 187500.0, 187500.0, -84141.7114903583, 0.022, 0.008, 0.98, 192.0, 0.0, 0.0, 0.0, 0.0, 0.0, 0.0, 0.0, 0.0, 0.0, 1.7172378773714635E9, 0.0, 2024-06-01 03:31:17.371
182.0, 187500.0, -39506.842435221966, 187500.0, 187500.0, 187500.0, 187500.0, 187500.0, -84239.52272409473, 0.022, 0.008, 0.98, 192.0, 0.0, 0.0, 0.0, 0.0, 0.0, 0.0, 0.0, 0.0, 0.0, 1.717237877371477E9, 0.0, 2024-06-01 03:31:17.371
183.0, 187500.0, -39532.971624490216, 187500.0, 187500.0, 187500.0, 187500.0, 187500.0, -84235.27589264822, 0.022, 0.008, 0.98, 192.0, 0.0, 0.0, 0.0, 0.0, 0.0, 0.0, 0.0, 0.0, 0.0, 1.71723787737149E9, 0.0, 2024-06-01 03:31:17.371
184.0, 187500.0, -39441.32947222346, 187500.0, 187500.0, 187500.0, 187500.0, 187500.0, -84139.49866765722, 0.022, 0.008, 0.98, 192.0, 0.0, 0.0, 0.0, 0.0, 0.0, 0.0, 0.0, 0.0, 0.0, 1.7172378773715107E9, 0.0, 2024-06-01 03:31:17.371
185.0, 187500.0, -39396.91655599076, 187500.0, 187500.0, 187500.0, 187500.0, 187500.0, -84143.96901654829, 0.022, 0.008, 0.98, 192.0, 0.0, 0.0, 0.0, 0.0, 0.0, 0.0, 0.0, 0.0, 0.0, 1.717237877371524E9, 0.0, 2024-06-01 03:31:17.371
186.0, 187500.0, -39481.584963987465, 187500.0, 187500.0, 187500.0, 187500.0, 187500.0, -84230.22439840132, 0.022, 0.008, 0.98, 192.0, 0.0, 0.0, 0.0, 0.0, 0.0, 0.0, 0.0, 0.0, 0.0, 1.7172378773715372E9, 0.0, 2024-06-01 03:31:17.371
187.0, 187500.0, -39532.39047913438, 187500.0, 187500.0, 187500.0, 187500.0, 187500.0, -84240.7297182953, 0.022, 0.008, 0.98, 192.0, 0.0, 0.0, 0.0, 0.0, 0.0, 0.0, 0.0, 0.0, 0.0, 1.7172378773715506E9, 0.0, 2024-06-01 03:31:17.371
188.0, 187500.0, -39445.68806239225, 187500.0, 187500.0, 187500.0, 187500.0, 187500.0, -84153.28969398615, 0.022, 0.008, 0.98, 192.0, 0.0, 0.0, 0.0, 0.0, 0.0, 0.0, 0.0, 0.0, 0.0, 1.717237877371564E9, 0.0, 2024-06-01 03:31:17.371
189.0, 187500.0, -39384.80191049599, 187500.0, 187500.0, 187500.0, 187500.0, 187500.0, -84126.24408319523, 0.02, -0.002, 0.982, 192.0, 0.0, 160.0, 255.0, 240.0, 30.0, 176.0, 0.0, 0.0, 0.0, 1.717237877371577E9, 0.0, 2024-06-01 03:31:17.371
190.0, 187500.0, -39466.05050159103, 187500.0, 187500.0, 187500.0, 187500.0, 187500.0, -84215.33813659407, 0.02, -0.002, 0.982, 192.0, 0.0, 0.0, 0.0, 0.0, 0.0, 0.0, 0.0, 0.0, 0.0, 1.7172378773715909E9, 0.0, 2024-06-01 03:31:17.371
191.0, 187500.0, -39531.56346458953, 187500.0, 187500.0, 187500.0, 187500.0, 187500.0, -84266.72479709683, 0.02, -0.002, 0.982, 192.0, 0.0, 0.0, 0.0, 0.0, 0.0, 0.0, 0.0, 0.0, 0.0, 1.7172378773716042E9, 0.0, 2024-06-01 03:31:17.371
192.0, 187500.0, -39469.82794640397, 187500.0, 187500.0, 187500.0, 187500.0, 187500.0, -84187.75608393623, 0.02, -0.002, 0.982, 192.0, 0.0, 0.0, 0.0, 0.0, 0.0, 0.0, 0.0, 0.0, 0.0, 1.7172378773716173E9, 0.0, 2024-06-01 03:31:17.371
193.0, 187500.0, -39394.81549201196, 187500.0, 187500.0, 187500.0, 187500.0, 187500.0, -84139.36455719049, 0.02, -0.002, 0.982, 192.0, 0.0, 0.0, 0.0, 0.0, 0.0, 0.0, 0.0, 0.0, 0.0, 1.7172378773716307E9, 0.0, 2024-06-01 03:31:17.371
194.0, 187500.0, -39460.93195211076, 187500.0, 187500.0, 187500.0, 187500.0, 187500.0, -84226.55871231064, 0.02, -0.002, 0.982, 192.0, 0.0, 0.0, 0.0, 0.0, 0.0, 0.0, 0.0, 0.0, 0.0, 1.7172378773716445E9, 0.0, 2024-06-01 03:31:17.371
195.0, 187500.0, -39540.392403649385, 187500.0, 187500.0, 187500.0, 187500.0, 187500.0, -84283.33214322712, 0.02, -0.002, 0.982, 192.0, 0.0, 0.0, 0.0, 0.0, 0.0, 0.0, 0.0, 0.0, 0.0, 1.7172378773716576E9, 0.0, 2024-06-01 03:31:17.371
196.0, 187500.0, -39499.77928397409, 187500.0, 187500.0, 187500.0, 187500.0, 187500.0, -84199.2225288418, 0.02, -0.002, 0.982, 192.0, 0.0, 0.0, 0.0, 0.0, 0.0, 0.0, 0.0, 0.0, 0.0, 1.7172378773716712E9, 0.0, 2024-06-01 03:31:17.371
197.0, 187500.0, -39406.550157851, 187500.0, 187500.0, 187500.0, 187500.0, 187500.0, -84121.01377499268, 0.02, -0.002, 0.982, 192.0, 0.0, 0.0, 0.0, 0.0, 0.0, 0.0, 0.0, 0.0, 0.0, 1.7172378773716843E9, 0.0, 2024-06-01 03:31:17.371
198.0, 187500.0, -39445.97863507016, 187500.0, 187500.0, 187500.0, 187500.0, 187500.0, -84211.29247084766, 0.02, -0.002, 0.982, 192.0, 0.0, 0.0, 0.0, 0.0, 0.0, 0.0, 0.0, 0.0, 0.0, 1.717237877371698E9, 0.0, 2024-06-01 03:31:17.371
199.0, 187500.0, -39532.770458790124, 187500.0, 187500.0, 187500.0, 187500.0, 187500.0, -84296.78789338922, 0.016, -0.004, 0.982, 192.0, 0.0, 128.0, 255.0, 224.0, 30.0, 176.0, 0.0, 0.0, 0.0, 1.7172378775436308E9, 0.0, 2024-06-01 03:31:17.543
200.0, 187500.0, -39510.82104573501, 187500.0, 187500.0, 187500.0, 187500.0, 187500.0, -84240.46149736184, 0.016, -0.004, 0.982, 192.0, 0.0, 0.0, 0.0, 0.0, 0.0, 0.0, 0.0, 0.0, 0.0, 1.7172378775437033E9, 0.0, 2024-06-01 03:31:17.543
201.0, 187500.0, -39412.07103873146, 187500.0, 187500.0, 187500.0, 187500.0, 187500.0, -84150.07104278458, 0.016, -0.004, 0.982, 192.0, 0.0, 0.0, 0.0, 0.0, 0.0, 0.0, 0.0, 0.0, 0.0, 1.717237877543723E9, 0.0, 2024-06-01 03:31:17.543
202.0, 187500.0, -39426.24204471613, 187500.0, 187500.0, 187500.0, 187500.0, 187500.0, -84198.14964510794, 0.016, -0.004, 0.982, 192.0, 0.0, 0.0, 0.0, 0.0, 0.0, 0.0, 0.0, 0.0, 0.0, 1.7172378775437407E9, 0.0, 2024-06-01 03:31:17.543
203.0, 187500.0, -39518.711211527734, 187500.0, 187500.0, 187500.0, 187500.0, 187500.0, -84278.1912420024, 0.016, -0.004, 0.982, 192.0, 0.0, 0.0, 0.0, 0.0, 0.0, 0.0, 0.0, 0.0, 0.0, 1.7172378775437577E9, 0.0, 2024-06-01 03:31:17.543
204.0, 187500.0, -39523.78505751909, 187500.0, 187500.0, 187500.0, 187500.0, 187500.0, -84241.86965726253, 0.016, -0.004, 0.982, 192.0, 0.0, 0.0, 0.0, 0.0, 0.0, 0.0, 0.0, 0.0, 0.0, 1.7172378775437748E9, 0.0, 2024-06-01 03:31:17.543
205.0, 187500.0, -39422.1516754808, 187500.0, 187500.0, 187500.0, 187500.0, 187500.0, -84158.09531904403, 0.016, -0.004, 0.982, 192.0, 0.0, 0.0, 0.0, 0.0, 0.0, 0.0, 0.0, 0.0, 0.0, 1.7172378775437915E9, 0.0, 2024-06-01 03:31:17.543
206.0, 187500.0, -39416.56373936698, 187500.0, 187500.0, 187500.0, 187500.0, 187500.0, -84183.53160423417, 0.016, -0.004, 0.982, 192.0, 0.0, 0.0, 0.0, 0.0, 0.0, 0.0, 0.0, 0.0, 0.0, 1.7172378775438085E9, 0.0, 2024-06-01 03:31:17.543
207.0, 187500.0, -39510.597528290455, 187500.0, 187500.0, 187500.0, 187500.0, 187500.0, -84278.3477042136, 0.016, -0.004, 0.982, 192.0, 0.0, 0.0, 0.0, 0.0, 0.0, 0.0, 0.0, 0.0, 0.0, 1.717237877543825E9, 0.0, 2024-06-01 03:31:17.543
208.0, 187500.0, -39537.01729023663, 187500.0, 187500.0, 187500.0, 187500.0, 187500.0, -84267.41770117494, 0.022, -0.006, 0.984, 192.0, 0.0, 176.0, 255.0, 208.0, 30.0, 192.0, 0.0, 0.0, 0.0, 1.7172378775438414E9, 0.0, 2024-06-01 03:31:17.543
209.0, 187500.0, -39448.6608444048, 187500.0, 187500.0, 187500.0, 187500.0, 187500.0, -84177.36252276451, 0.022, -0.006, 0.984, 192.0, 0.0, 0.0, 0.0, 0.0, 0.0, 0.0, 0.0, 0.0, 0.0, 1.7172378775438588E9, 0.0, 2024-06-01 03:31:17.543
210.0, 187500.0, -39407.10895146238, 187500.0, 187500.0, 187500.0, 187500.0, 187500.0, -84164.35380749153, 0.022, -0.006, 0.984, 192.0, 0.0, 0.0, 0.0, 0.0, 0.0, 0.0, 0.0, 0.0, 0.0, 1.7172378775438752E9, 0.0, 2024-06-01 03:31:17.543
211.0, 187500.0, -39481.67437096529, 187500.0, 187500.0, 187500.0, 187500.0, 187500.0, -84262.43326216142, 0.022, -0.006, 0.984, 192.0, 0.0, 0.0, 0.0, 0.0, 0.0, 0.0, 0.0, 0.0, 0.0, 1.7172378775438917E9, 0.0, 2024-06-01 03:31:17.543
212.0, 187500.0, -39532.2340169232, 187500.0, 187500.0, 187500.0, 187500.0, 187500.0, -84283.66741939395, 0.022, -0.006, 0.984, 192.0, 0.0, 0.0, 0.0, 0.0, 0.0, 0.0, 0.0, 0.0, 0.0, 1.717237877543908E9, 0.0, 2024-06-01 03:31:17.543
213.0, 187500.0, -39462.04953933353, 187500.0, 187500.0, 187500.0, 187500.0, 187500.0, -84193.99222063927, 0.022, -0.006, 0.984, 192.0, 0.0, 0.0, 0.0, 0.0, 0.0, 0.0, 0.0, 0.0, 0.0, 1.7172378775439243E9, 0.0, 2024-06-01 03:31:17.543
214.0, 187500.0, -39403.21974792716, 187500.0, 187500.0, 187500.0, 187500.0, 187500.0, -84159.39172022244, 0.022, -0.006, 0.984, 192.0, 0.0, 0.0, 0.0, 0.0, 0.0, 0.0, 0.0, 0.0, 0.0, 1.7172378775439408E9, 0.0, 2024-06-01 03:31:17.543
215.0, 187500.0, -39463.36829225639, 187500.0, 187500.0, 187500.0, 187500.0, 187500.0, -84250.67624457792, 0.022, -0.006, 0.984, 192.0, 0.0, 0.0, 0.0, 0.0, 0.0, 0.0, 0.0, 0.0, 0.0, 1.7172378775439696E9, 0.0, 2024-06-01 03:31:17.543
216.0, 187500.0, -39540.57121760502, 187500.0, 187500.0, 187500.0, 187500.0, 187500.0, -84306.91323362748, 0.022, -0.006, 0.984, 192.0, 0.0, 0.0, 0.0, 0.0, 0.0, 0.0, 0.0, 0.0, 0.0, 1.717237877543986E9, 0.0, 2024-06-01 03:31:17.543
217.0, 187500.0, -39486.68116172328, 187500.0, 187500.0, 187500.0, 187500.0, 187500.0, -84218.73560175128, 0.022, -0.006, 0.984, 192.0, 0.0, 0.0, 0.0, 0.0, 0.0, 0.0, 0.0, 0.0, 0.0, 1.7172378775440025E9, 0.0, 2024-06-01 03:31:17.544
218.0, 187500.0, -39407.53363460703, 187500.0, 187500.0, 187500.0, 187500.0, 187500.0, -84162.20804002382, 0.02, -0.004, 0.984, 192.0, 0.0, 160.0, 255.0, 224.0, 30.0, 192.0, 0.0, 0.0, 0.0, 1.7172378775440192E9, 0.0, 2024-06-01 03:31:17.544
219.0, 187500.0, -39460.820193388485, 187500.0, 187500.0, 187500.0, 187500.0, 187500.0, -84247.81522128764, 0.02, -0.004, 0.984, 192.0, 0.0, 0.0, 0.0, 0.0, 0.0, 0.0, 0.0, 0.0, 0.0, 1.717237877544036E9, 0.0, 2024-06-01 03:31:17.544
220.0, 187500.0, -39540.4818106272, 187500.0, 187500.0, 187500.0, 187500.0, 187500.0, -84327.23096933735, 0.02, -0.004, 0.984, 192.0, 0.0, 0.0, 0.0, 0.0, 0.0, 0.0, 0.0, 0.0, 0.0, 1.7172378775440524E9, 0.0, 2024-06-01 03:31:17.544
221.0, 187500.0, -39501.925051441794, 187500.0, 187500.0, 187500.0, 187500.0, 187500.0, -84248.46342187685, 0.02, -0.004, 0.984, 192.0, 0.0, 0.0, 0.0, 0.0, 0.0, 0.0, 0.0, 0.0, 0.0, 1.717237877544069E9, 0.0, 2024-06-01 03:31:17.544
222.0, 187500.0, -39410.08173347494, 187500.0, 187500.0, 187500.0, 187500.0, 187500.0, -84163.28092375767, 0.02, -0.004, 0.984, 192.0, 0.0, 0.0, 0.0, 0.0, 0.0, 0.0, 0.0, 0.0, 0.0, 1.7172378775440853E9, 0.0, 2024-06-01 03:31:17.544
223.0, 187500.0, -39436.05446053201, 187500.0, 187500.0, 187500.0, 187500.0, 187500.0, -84230.60437805705, 0.02, -0.004, 0.984, 192.0, 0.0, 0.0, 0.0, 0.0, 0.0, 0.0, 0.0, 0.0, 0.0, 1.7172378775441017E9, 0.0, 2024-06-01 03:31:17.544
224.0, 187500.0, -39531.76463028963, 187500.0, 187500.0, 187500.0, 187500.0, 187500.0, -84325.42047803647, 0.02, -0.004, 0.984, 192.0, 0.0, 0.0, 0.0, 0.0, 0.0, 0.0, 0.0, 0.0, 0.0, 1.717237877544118E9, 0.0, 2024-06-01 03:31:17.544
225.0, 187500.0, -39522.08632494049, 187500.0, 187500.0, 187500.0, 187500.0, 187500.0, -84274.50320416728, 0.02, -0.004, 0.984, 192.0, 0.0, 0.0, 0.0, 0.0, 0.0, 0.0, 0.0, 0.0, 0.0, 1.7172378775441344E9, 0.0, 2024-06-01 03:31:17.544
226.0, 187500.0, -39421.16819872477, 187500.0, 187500.0, 187500.0, 187500.0, 187500.0, -84177.7201506758, 0.02, -0.004, 0.984, 192.0, 0.0, 0.0, 0.0, 0.0, 0.0, 0.0, 0.0, 0.0, 0.0, 1.7172378775441513E9, 0.0, 2024-06-01 03:31:17.544
227.0, 187500.0, -39432.656995374804, 187500.0, 187500.0, 187500.0, 187500.0, 187500.0, -84222.40128784196, 0.02, -0.004, 0.984, 192.0, 0.0, 0.0, 0.0, 0.0, 0.0, 0.0, 0.0, 0.0, 0.0, 1.7172378775441675E9, 0.0, 2024-06-01 03:31:17.544
228.0, 187500.0, -39512.497426569156, 187500.0, 187500.0, 187500.0, 187500.0, 187500.0, -84319.87724541155, 0.026000000000000002, -0.006, 0.984, 192.0, 0.0, 208.0, 255.0, 208.0, 30.0, 192.0, 0.0, 0.0, 0.0, 1.7172378775441835E9, 0.0, 2024-06-01 03:31:17.544
229.0, 187500.0, -39530.71409830023, 187500.0, 187500.0, 187500.0, 187500.0, 187500.0, -84289.79179737471, 0.026000000000000002, -0.006, 0.984, 192.0, 0.0, 0.0, 0.0, 0.0, 0.0, 0.0, 0.0, 0.0, 0.0, 1.7172378775442007E9, 0.0, 2024-06-01 03:31:17.544
230.0, 187500.0, -39440.81538210099, 187500.0, 187500.0, 187500.0, 187500.0, 187500.0, -84182.19049956686, 0.026000000000000002, -0.006, 0.984, 192.0, 0.0, 0.0, 0.0, 0.0, 0.0, 0.0, 0.0, 0.0, 0.0, 1.7172378775442724E9, 0.0, 2024-06-01 03:31:17.544
231.0, 187500.0, -39416.653146344805, 187500.0, 187500.0, 187500.0, 187500.0, 187500.0, -84203.0223253992, 0.026000000000000002, -0.006, 0.984, 192.0, 0.0, 0.0, 0.0, 0.0, 0.0, 0.0, 0.0, 0.0, 0.0, 1.7172378775442903E9, 0.0, 2024-06-01 03:31:17.544
232.0, 187500.0, -39507.468284066716, 187500.0, 187500.0, 187500.0, 187500.0, 187500.0, -84300.34182075762, 0.026000000000000002, -0.006, 0.984, 192.0, 0.0, 0.0, 0.0, 0.0, 0.0, 0.0, 0.0, 0.0, 0.0, 1.7172378775443084E9, 0.0, 2024-06-01 03:31:17.544
233.0, 187500.0, -39536.36908964743, 187500.0, 187500.0, 187500.0, 187500.0, 187500.0, -84302.01820159177, 0.026000000000000002, -0.006, 0.984, 192.0, 0.0, 0.0, 0.0, 0.0, 0.0, 0.0, 0.0, 0.0, 0.0, 1.7172378775443256E9, 0.0, 2024-06-01 03:31:17.544
234.0, 187500.0, -39436.54619891002, 187500.0, 187500.0, 187500.0, 187500.0, 187500.0, -84203.91639517742, 0.026000000000000002, -0.006, 0.984, 192.0, 0.0, 0.0, 0.0, 0.0, 0.0, 0.0, 0.0, 0.0, 0.0, 1.7172378775443425E9, 0.0, 2024-06-01 03:31:17.544
235.0, 187500.0, -39395.48604434563, 187500.0, 187500.0, 187500.0, 187500.0, 187500.0, -84185.5209094907, 0.026000000000000002, -0.006, 0.984, 192.0, 0.0, 0.0, 0.0, 0.0, 0.0, 0.0, 0.0, 0.0, 0.0, 1.7172378775443587E9, 0.0, 2024-06-01 03:31:17.544
236.0, 187500.0, -39487.128196612386, 187500.0, 187500.0, 187500.0, 187500.0, 187500.0, -84292.42930322043, 0.026000000000000002, -0.006, 0.984, 192.0, 0.0, 0.0, 0.0, 0.0, 0.0, 0.0, 0.0, 0.0, 0.0, 1.7172378775443754E9, 0.0, 2024-06-01 03:31:17.544
237.0, 187500.0, -39544.236903695695, 187500.0, 187500.0, 187500.0, 187500.0, 187500.0, -84331.03076589474, 0.026000000000000002, -0.006, 0.984, 192.0, 0.0, 0.0, 0.0, 0.0, 0.0, 0.0, 0.0, 0.0, 0.0, 1.717237877544392E9, 0.0, 2024-06-01 03:31:17.544
238.0, 187500.0, -39466.81046090251, 187500.0, 187500.0, 187500.0, 187500.0, 187500.0, -84242.96489274084, 0.024, 0.0, 0.986, 192.0, 0.0, 192.0, 0.0, 0.0, 30.0, 208.0, 0.0, 0.0, 0.0, 1.717237877544408E9, 0.0, 2024-06-01 03:31:17.544
239.0, 187500.0, -39412.47337013166, 187500.0, 187500.0, 187500.0, 187500.0, 187500.0, -84213.88527320449, 0.024, 0.0, 0.986, 192.0, 0.0, 0.0, 0.0, 0.0, 0.0, 0.0, 0.0, 0.0, 0.0, 1.7172378775444248E9, 0.0, 2024-06-01 03:31:17.544
240.0, 187500.0, -39477.0699116075, 187500.0, 187500.0, 187500.0, 187500.0, 187500.0, -84294.44096022141, 0.024, 0.0, 0.986, 192.0, 0.0, 0.0, 0.0, 0.0, 0.0, 0.0, 0.0, 0.0, 0.0, 1.7172378780136244E9, 0.0, 2024-06-01 03:31:18.013
241.0, 187500.0, -39546.20385720776, 187500.0, 187500.0, 187500.0, 187500.0, 187500.0, -84333.84708569612, 0.024, 0.0, 0.986, 192.0, 0.0, 0.0, 0.0, 0.0, 0.0, 0.0, 0.0, 0.0, 0.0, 1.7172378780136783E9, 0.0, 2024-06-01 03:31:18.013
242.0, 187500.0, -39484.110711110916, 187500.0, 187500.0, 187500.0, 187500.0, 187500.0, -84242.20493342936, 0.024, 0.0, 0.986, 192.0, 0.0, 0.0, 0.0, 0.0, 0.0, 0.0, 0.0, 0.0, 0.0, 1.7172378780137148E9, 0.0, 2024-06-01 03:31:18.013
243.0, 187500.0, -39397.45299785769, 187500.0, 187500.0, 187500.0, 187500.0, 187500.0, -84170.50053721674, 0.024, 0.0, 0.986, 192.0, 0.0, 0.0, 0.0, 0.0, 0.0, 0.0, 0.0, 0.0, 0.0, 1.7172378780137472E9, 0.0, 2024-06-01 03:31:18.013
244.0, 187500.0, -39450.02430081658, 187500.0, 187500.0, 187500.0, 187500.0, 187500.0, -84256.59945685857, 0.024, 0.0, 0.986, 192.0, 0.0, 0.0, 0.0, 0.0, 0.0, 0.0, 0.0, 0.0, 0.0, 1.7172378780137794E9, 0.0, 2024-06-01 03:31:18.013
245.0, 187500.0, -39542.60522635045, 187500.0, 187500.0, 187500.0, 187500.0, 187500.0, -84346.02878642426, 0.024, 0.0, 0.986, 192.0, 0.0, 0.0, 0.0, 0.0, 0.0, 0.0, 0.0, 0.0, 0.0, 1.7172378780138798E9, 0.0, 2024-06-01 03:31:18.013
246.0, 187500.0, -39509.63640327888, 187500.0, 187500.0, 187500.0, 187500.0, 187500.0, -84276.78308210171, 0.024, 0.0, 0.986, 192.0, 0.0, 0.0, 0.0, 0.0, 0.0, 0.0, 0.0, 0.0, 0.0, 1.7172378780138986E9, 0.0, 2024-06-01 03:31:18.013
247.0, 187500.0, -39417.837788800935, 187500.0, 187500.0, 187500.0, 187500.0, 187500.0, -84199.51310151973, 0.024, 0.0, 0.986, 192.0, 0.0, 0.0, 0.0, 0.0, 0.0, 0.0, 0.0, 0.0, 0.0, 1.7172378780139189E9, 0.0, 2024-06-01 03:31:18.013
248.0, 187500.0, -39443.832867602454, 187500.0, 187500.0, 187500.0, 187500.0, 187500.0, -84251.57031435613, 0.028, -0.004, 0.986, 192.0, 0.0, 224.0, 255.0, 224.0, 30.0, 208.0, 0.0, 0.0, 0.0, 1.717237878013938E9, 0.0, 2024-06-01 03:31:18.013
249.0, 187500.0, -39534.7821157911, 187500.0, 187500.0, 187500.0, 187500.0, 187500.0, -84348.35336784761, 0.028, -0.004, 0.986, 192.0, 0.0, 0.0, 0.0, 0.0, 0.0, 0.0, 0.0, 0.0, 0.0, 1.717237878013958E9, 0.0, 2024-06-01 03:31:18.013
250.0, 187500.0, -39526.64608080937, 187500.0, 187500.0, 187500.0, 187500.0, 187500.0, -84315.4516000094, 0.028, -0.004, 0.986, 192.0, 0.0, 0.0, 0.0, 0.0, 0.0, 0.0, 0.0, 0.0, 0.0, 1.7172378780139763E9, 0.0, 2024-06-01 03:31:18.013
251.0, 187500.0, -39424.677422604254, 187500.0, 187500.0, 187500.0, 187500.0, 187500.0, -84220.50138956326, 0.028, -0.004, 0.986, 192.0, 0.0, 0.0, 0.0, 0.0, 0.0, 0.0, 0.0, 0.0, 0.0, 1.7172378780139956E9, 0.0, 2024-06-01 03:31:18.013
252.0, 187500.0, -39424.27509120406, 187500.0, 187500.0, 187500.0, 187500.0, 187500.0, -84259.95221852687, 0.028, -0.004, 0.986, 192.0, 0.0, 0.0, 0.0, 0.0, 0.0, 0.0, 0.0, 0.0, 0.0, 1.7172378780140145E9, 0.0, 2024-06-01 03:31:18.014
253.0, 187500.0, -39523.85211275245, 187500.0, 187500.0, 187500.0, 187500.0, 187500.0, -84354.50009757282, 0.028, -0.004, 0.986, 192.0, 0.0, 0.0, 0.0, 0.0, 0.0, 0.0, 0.0, 0.0, 0.0, 1.7172378780140328E9, 0.0, 2024-06-01 03:31:18.014
