%OpenBCI Raw EXG Data
%Number of channels = 8
%Sample Rate = 250 Hz
%Board = OpenBCI_GUI$BoardCytonSerial
Sample Index, EXG Channel 0, EXG Channel 1, EXG Channel 2, EXG Channel 3, EXG Channel 4, EXG Channel 5, EXG Channel 6, EXG Channel 7, Accel Channel 0, Accel Channel 1, Accel Channel 2, Other, Other, Other, Other, Other, Other, Other, Analog Channel 0, Analog Channel 1, Analog Channel 2, Timestamp, Other, Timestamp (Formatted)
0.0, -149557.86908362736, -149447.78674218498, -149594.34713057842, -149586.97105490818, -149631.3169159075, -149605.1653748948, -149591.2625898436, -159245.85273812446, -0.012, -0.042, 0.484, 192.0, 255.0, 160.0, 254.0, 176.0, 15.0, 32.0, 0.0, 0.0, 0.0, 1.7172367719602003E9, 0.0, 2024-06-01 03:12:51.960
1.0, -149557.66791792726, -149447.3173555514, -149594.1012613894, -149586.6581304858, -149631.04869497404, -149604.6736365168, -149591.5084590326, -159245.87508986893, -0.012, -0.042, 0.484, 192.0, 0.0, 0.0, 0.0, 0.0, 0.0, 0.0, 0.0, 0.0, 0.0, 1.7172367719602404E9, 0.0, 2024-06-01 03:12:51.960
2.0, -149559.54546446152, -149448.90432940773, -149595.93410443474, -149588.3568630644, -149632.97094499719, -149606.2606103731, -149593.6542265003, -159247.32795325853, -0.012, -0.042, 0.484, 192.0, 0.0, 0.0, 0.0, 0.0, 0.0, 0.0, 0.0, 0.0, 0.0, 1.717236771960262E9, 0.0, 2024-06-01 03:12:51.960
3.0, -149560.30542377298, -149449.3290125524, -149596.69406374622, -149588.8038979535, -149633.57444209748, -149606.6182382844, -149594.4588893007, -159247.48441546972, -0.012, -0.042, 0.484, 192.0, 0.0, 0.0, 0.0, 0.0, 0.0, 0.0, 0.0, 0.0, 0.0, 1.7172367719602845E9, 0.0, 2024-06-01 03:12:51.960
4.0, -149559.67957492825, -149448.3678875408, -149596.02351141258, -149587.9545316642, -149632.83683453046, -149605.67946501725, -149594.12361313388, -159246.88091836942, -0.012, -0.042, 0.484, 192.0, 0.0, 0.0, 0.0, 0.0, 0.0, 0.0, 0.0, 0.0, 0.0, 1.7172367719603076E9, 0.0, 2024-06-01 03:12:51.960
5.0, -149558.91961561676, -149447.25030031806, -149595.2635521011, -149587.0157583971, -149632.09922696344, -149604.6736365168, -149593.92244743378, -159246.34447650248, -0.012, -0.042, 0.484, 192.0, 0.0, 0.0, 0.0, 0.0, 0.0, 0.0, 0.0, 0.0, 0.0, 1.7172367719603353E9, 0.0, 2024-06-01 03:12:51.960
6.0, -149559.23254003914, -149447.2726520625, -149595.57647652348, -149587.23927584162, -149632.45685487473, -149604.74069175014, -149594.54829627852, -159246.47858696923, -0.012, -0.042, 0.484, 192.0, 0.0, 0.0, 0.0, 0.0, 0.0, 0.0, 0.0, 0.0, 0.0, 1.7172367719603505E9, 0.0, 2024-06-01 03:12:51.960
7.0, -149560.41718249526, -149448.18907358518, -149596.6717120018, -149588.17804910877, -149633.55209035304, -149605.54535455053, -149595.73293873464, -159247.12678755843, -0.016, -0.066, 0.736, 192.0, 255.0, 128.0, 253.0, 240.0, 23.0, 0.0, 0.0, 0.0, 0.0, 1.7172367719603589E9, 0.0, 2024-06-01 03:12:51.960
8.0, -149560.37247900636, -149447.9208526517, -149596.58230502394, -149588.02158689758, -149633.39562814185, -149605.2100783837, -149596.02351141258, -159246.97032534724, -0.016, -0.066, 0.736, 192.0, 0.0, 0.0, 0.0, 0.0, 0.0, 0.0, 0.0, 0.0, 0.0, 1.7172367719603667E9, 0.0, 2024-06-01 03:12:51.960
9.0, -149560.3501272619, -149447.69733520717, -149596.62700851288, -149587.8651246864, -149633.46268337523, -149604.9195057058, -149596.5152497906, -159247.26089802515, -0.016, -0.066, 0.736, 192.0, 0.0, 0.0, 0.0, 0.0, 0.0, 0.0, 0.0, 0.0, 0.0, 1.7172367719603753E9, 0.0, 2024-06-01 03:12:51.960
10.0, -149559.83603713944, -149446.80326542896, -149595.9564561792, -149587.12751711937, -149632.90388976384, -149604.04778767203, -149596.22467711268, -159246.67975266933, -0.016, -0.066, 0.736, 192.0, 0.0, 0.0, 0.0, 0.0, 0.0, 0.0, 0.0, 0.0, 0.0, 1.7172367719603834E9, 0.0, 2024-06-01 03:12:51.960
11.0, -149560.79716215102, -149447.4291142737, -149596.82817421298, -149587.9098281753, -149633.70855256423, -149604.6736365168, -149597.27520910208, -159247.08208406952, -0.016, -0.066, 0.736, 192.0, 0.0, 0.0, 0.0, 0.0, 0.0, 0.0, 0.0, 0.0, 0.0, 1.7172367719603915E9, 0.0, 2024-06-01 03:12:51.960
12.0, -149561.82534239595, -149448.25612881852, -149597.9681131802, -149588.93800842023, -149634.6696775758, -149605.45594757271, -149598.6163137694, -159247.93145035882, -0.016, -0.066, 0.736, 192.0, 0.0, 0.0, 0.0, 0.0, 0.0, 0.0, 0.0, 0.0, 0.0, 1.7172367719603999E9, 0.0, 2024-06-01 03:12:51.960
13.0, -149561.02067959556, -149447.04913461796, -149597.09639514642, -149587.8651246864, -149633.8650147754, -149604.45011907222, -149598.23633411364, -159247.32795325853, -0.016, -0.066, 0.736, 192.0, 0.0, 0.0, 0.0, 0.0, 0.0, 0.0, 0.0, 0.0, 0.0, 1.717236771960408E9, 0.0, 2024-06-01 03:12:51.960
14.0, -149561.13243831784, -149446.9820793846, -149597.14109863533, -149587.798069453, -149633.99912524215, -149604.2713051166, -149598.63866551383, -159247.48441546972, -0.016, -0.066, 0.736, 192.0, 0.0, 0.0, 0.0, 0.0, 0.0, 0.0, 0.0, 0.0, 0.0, 1.717236771960418E9, 0.0, 2024-06-01 03:12:51.960
15.0, -149563.32290927446, -149448.8149224299, -149599.17510738078, -149589.809726454, -149635.9660787542, -149606.03709292854, -149600.8738399594, -159248.95963060376, -0.016, -0.066, 0.736, 192.0, 0.0, 0.0, 0.0, 0.0, 0.0, 0.0, 0.0, 0.0, 0.0, 1.7172367719604273E9, 0.0, 2024-06-01 03:12:51.960
16.0, -149563.32290927446, -149448.54670149647, -149599.08570040294, -149589.63091249837, -149635.89902352085, -149605.79122373954, -149601.07500565948, -159248.82552013703, -0.016, -0.066, 0.736, 192.0, 0.0, 0.0, 0.0, 0.0, 0.0, 0.0, 0.0, 0.0, 0.0, 1.7172367719604359E9, 0.0, 2024-06-01 03:12:51.960
17.0, -149562.38413600734, -149447.36205904032, -149598.12457539138, -149588.53567702003, -149634.96025025373, -149604.6065812834, -149600.73972949263, -159248.06556082555, -0.018000000000000002, -0.082, 0.852, 192.0, 255.0, 112.0, 253.0, 112.0, 26.0, 160.0, 0.0, 0.0, 0.0, 1.7172367719604445E9, 0.0, 2024-06-01 03:12:51.960
18.0, -149564.30638603048, -149449.01608813, -149600.04682541452, -149590.36852006539, -149637.0166107436, -149606.28296211755, -149603.17606963828, -159250.1889765488, -0.018000000000000002, -0.082, 0.852, 192.0, 0.0, 0.0, 0.0, 0.0, 0.0, 0.0, 0.0, 0.0, 0.0, 1.7172367719604523E9, 0.0, 2024-06-01 03:12:51.960
19.0, -149565.55808371998, -149449.88780616378, -149601.2091161262, -149591.37434856588, -149638.04479098856, -149607.13232840685, -149604.38306383885, -159250.85952888246, -0.018000000000000002, -0.082, 0.852, 192.0, 0.0, 0.0, 0.0, 0.0, 0.0, 0.0, 0.0, 0.0, 0.0, 1.7172367719604604E9, 0.0, 2024-06-01 03:12:51.960
20.0, -149565.58043546445, -149449.50782650802, -149601.1197091484, -149591.2178863547, -149637.8659770329, -149606.5735347955, -149604.3607120944, -159250.43484573782, -0.018000000000000002, -0.082, 0.852, 192.0, 0.0, 0.0, 0.0, 0.0, 0.0, 0.0, 0.0, 0.0, 0.0, 1.7172367719604683E9, 0.0, 2024-06-01 03:12:51.960
21.0, -149566.18393256475, -149449.95486139713, -149601.79026148203, -149591.8660869439, -149638.58123285547, -149607.17703189576, -149605.47829931715, -159251.28421202712, -0.018000000000000002, -0.082, 0.852, 192.0, 0.0, 0.0, 0.0, 0.0, 0.0, 0.0, 0.0, 0.0, 0.0, 1.7172367719604945E9, 0.0, 2024-06-01 03:12:51.960
22.0, -149567.81560990997, -149451.27361432, -149603.39958708282, -149593.3189503335, -149640.23526194517, -149608.69695051873, -149607.60171504042, -159253.20646205026, -0.018000000000000002, -0.082, 0.852, 192.0, 0.0, 0.0, 0.0, 0.0, 0.0, 0.0, 0.0, 0.0, 0.0, 1.7172367719605088E9, 0.0, 2024-06-01 03:12:51.960
23.0, -149569.06730759947, -149452.1676840982, -149604.5171743056, -149594.2130201117, -149641.33049742348, -149609.47926157466, -149608.98752319664, -159253.92171787284, -0.018000000000000002, -0.082, 0.852, 192.0, 0.0, 0.0, 0.0, 0.0, 0.0, 0.0, 0.0, 0.0, 0.0, 1.7172367719605188E9, 0.0, 2024-06-01 03:12:51.960
24.0, -149568.1508860768, -149451.05009687546, -149603.57840103845, -149593.09543288892, -149640.34702066745, -149608.24991562963, -149608.20521214072, -159252.60296494997, -0.018000000000000002, -0.082, 0.852, 192.0, 0.0, 0.0, 0.0, 0.0, 0.0, 0.0, 0.0, 0.0, 0.0, 1.7172367719605289E9, 0.0, 2024-06-01 03:12:51.960
25.0, -149568.62027271037, -149451.2289108311, -149603.98073243865, -149593.34130207793, -149640.72700032318, -149608.40637784082, -149609.03222668555, -159253.09470332798, -0.018000000000000002, -0.082, 0.852, 192.0, 0.0, 0.0, 0.0, 0.0, 0.0, 0.0, 0.0, 0.0, 0.0, 1.7172367719605389E9, 0.0, 2024-06-01 03:12:51.960
26.0, -149569.62610121086, -149451.89946316477, -149604.98656093914, -149594.19066836723, -149641.77753231258, -149609.1663371523, -149610.57449705296, -159254.32404927304, -0.02, -0.08, 0.918, 192.0, 255.0, 96.0, 253.0, 128.0, 28.0, 176.0, 0.0, 0.0, 0.0, 1.7172367719605489E9, 0.0, 2024-06-01 03:12:51.960
27.0, -149569.0002523661, -149450.9830416421, -149604.3607120944, -149593.4530608002, -149641.12933172338, -149608.29461911853, -149610.2168691417, -159253.47468298374, -0.02, -0.08, 0.918, 192.0, 0.0, 0.0, 0.0, 0.0, 0.0, 0.0, 0.0, 0.0, 0.0, 1.7172367719605587E9, 0.0, 2024-06-01 03:12:51.960
28.0, -149567.99442386563, -149449.70899220812, -149603.24312487163, -149592.2013631107, -149639.94468926726, -149606.79705224003, -149609.18868889674, -159251.82065389404, -0.02, -0.08, 0.918, 192.0, 0.0, 0.0, 0.0, 0.0, 0.0, 0.0, 0.0, 0.0, 0.0, 1.7172367719605684E9, 0.0, 2024-06-01 03:12:51.960
29.0, -149567.9050168878, -149449.26195731902, -149603.08666266044, -149591.93314217727, -149639.7211718227, -149606.35001735092, -149609.3227993635, -159251.64183993838, -0.02, -0.08, 0.918, 192.0, 0.0, 0.0, 0.0, 0.0, 0.0, 0.0, 0.0, 0.0, 0.0, 1.717236771960578E9, 0.0, 2024-06-01 03:12:51.960
30.0, -149569.29082504404, -149450.33484105289, -149604.5171743056, -149593.1624881223, -149641.2634421901, -149607.57936329595, -149611.24504938663, -159253.36292426146, -0.02, -0.08, 0.918, 192.0, 0.0, 0.0, 0.0, 0.0, 0.0, 0.0, 0.0, 0.0, 0.0, 1.7172367719605877E9, 0.0, 2024-06-01 03:12:51.960
31.0, -149571.03426111155, -149451.85475967583, -149606.23825862864, -149594.79416546752, -149642.9621747687, -149609.1216336634, -149613.30140987653, -159254.86049113996, -0.02, -0.08, 0.918, 192.0, 0.0, 0.0, 0.0, 0.0, 0.0, 0.0, 0.0, 0.0, 0.0, 1.7172367719605975E9, 0.0, 2024-06-01 03:12:51.960
32.0, -149572.8447524124, -149453.4193817877, -149607.98169469615, -149596.4705463017, -149644.54914862505, -149610.52979356406, -149615.1119011774, -159256.11218882946, -0.02, -0.08, 0.918, 192.0, 0.0, 0.0, 0.0, 0.0, 0.0, 0.0, 0.0, 0.0, 0.0, 1.7172367719606073E9, 0.0, 2024-06-01 03:12:51.960
33.0, -149572.77769717906, -149453.1735125987, -149607.9146394628, -149596.3140840905, -149644.50444513615, -149610.19451739723, -149615.44717734423, -159256.11218882946, -0.02, -0.08, 0.918, 192.0, 0.0, 0.0, 0.0, 0.0, 0.0, 0.0, 0.0, 0.0, 0.0, 1.7172367719606173E9, 0.0, 2024-06-01 03:12:51.960
34.0, -149573.6494152128, -149453.70995446562, -149608.78635749654, -149597.02933991308, -149645.44321840326, -149610.88742147535, -149616.85533724492, -159257.22977605223, -0.02, -0.08, 0.918, 192.0, 0.0, 0.0, 0.0, 0.0, 0.0, 0.0, 0.0, 0.0, 0.0, 1.717236771960627E9, 0.0, 2024-06-01 03:12:51.960
35.0, -149574.61054022438, -149454.35815505483, -149609.59102029694, -149597.74459573562, -149646.38199167038, -149611.5132703201, -149618.03997970105, -159257.94503187478, -0.02, -0.08, 0.918, 192.0, 0.0, 0.0, 0.0, 0.0, 0.0, 0.0, 0.0, 0.0, 0.0, 1.7172367719606369E9, 0.0, 2024-06-01 03:12:51.960
36.0, -149573.47060125717, -149452.79353294297, -149608.33932260744, -149596.29173234603, -149645.08559049197, -149609.9709999527, -149616.90004073383, -159256.11218882946, -0.022, -0.078, 0.9540000000000001, 192.0, 255.0, 80.0, 253.0, 144.0, 29.0, 208.0, 0.0, 0.0, 0.0, 1.7172367719606464E9, 0.0, 2024-06-01 03:12:51.960
37.0, -149572.04008961204, -149451.1171521088, -149606.9758661957, -149594.74946197862, -149643.49861663565, -149608.20521214072, -149615.80480525552, -159254.59227020649, -0.022, -0.078, 0.9540000000000001, 192.0, 0.0, 0.0, 0.0, 0.0, 0.0, 0.0, 0.0, 0.0, 0.0, 1.7172367719606562E9, 0.0, 2024-06-01 03:12:51.960
38.0, -149572.6435867123, -149451.4747800201, -149607.60171504042, -149595.28590384554, -149644.19152071376, -149608.58519179645, -149617.01179945612, -159255.59809870698, -0.022, -0.078, 0.9540000000000001, 192.0, 0.0, 0.0, 0.0, 0.0, 0.0, 0.0, 0.0, 0.0, 0.0, 1.7172367719606657E9, 0.0, 2024-06-01 03:12:51.960
39.0, -149573.26943555707, -149451.78770444248, -149608.13815690734, -149595.68823524573, -149644.7726660696, -149608.9204679633, -149617.97292446767, -159256.15689231837, -0.022, -0.078, 0.9540000000000001, 192.0, 0.0, 0.0, 0.0, 0.0, 0.0, 0.0, 0.0, 0.0, 0.0, 1.7172367719606757E9, 0.0, 2024-06-01 03:12:51.960
40.0, -149573.6047117239, -149451.8324079314, -149608.29461911853, -149595.77764222358, -149644.95148002525, -149608.89811621883, -149618.28584889005, -159255.86631964045, -0.022, -0.078, 0.9540000000000001, 192.0, 0.0, 0.0, 0.0, 0.0, 0.0, 0.0, 0.0, 0.0, 0.0, 1.7172367719606855E9, 0.0, 2024-06-01 03:12:51.960
41.0, -149575.9963483806, -149454.00052714357, -149610.73095926415, -149597.9681131802, -149647.3207649375, -149611.0215319421, -149620.94570648024, -159257.9897353637, -0.022, -0.078, 0.9540000000000001, 192.0, 0.0, 0.0, 0.0, 0.0, 0.0, 0.0, 0.0, 0.0, 0.0, 1.717236771960695E9, 0.0, 2024-06-01 03:12:51.960
42.0, -149573.18002857926, -149450.9159864087, -149607.8699359739, -149595.062386401, -149644.4150381583, -149607.89228771834, -149618.57642156797, -159255.37458126244, -0.022, -0.078, 0.9540000000000001, 192.0, 0.0, 0.0, 0.0, 0.0, 0.0, 0.0, 0.0, 0.0, 0.0, 1.7172367719607043E9, 0.0, 2024-06-01 03:12:51.960
43.0, -149571.88362740085, -149449.28430906349, -149606.5735347955, -149593.6542265003, -149643.18569221327, -149606.39472083983, -149617.63764830085, -159254.1899388063, -0.022, -0.078, 0.9540000000000001, 192.0, 0.0, 0.0, 0.0, 0.0, 0.0, 0.0, 0.0, 0.0, 0.0, 1.7172367719607165E9, 0.0, 2024-06-01 03:12:51.960
44.0, -149573.06826985697, -149450.11132360832, -149607.64641852933, -149594.68240674524, -149644.39268641386, -149607.24408712913, -149618.91169773482, -159254.92754637334, -0.022, -0.078, 0.9540000000000001, 192.0, 0.0, 0.0, 0.0, 0.0, 0.0, 0.0, 0.0, 0.0, 0.0, 1.7172367719607265E9, 0.0, 2024-06-01 03:12:51.960
45.0, -149573.2470838126, -149450.11132360832, -149607.69112201824, -149594.570648023, -149644.39268641386, -149607.0652731735, -149619.15756692382, -159254.70402892877, -0.022, -0.078, 0.9540000000000001, 192.0, 0.0, 0.0, 0.0, 0.0, 0.0, 0.0, 0.0, 0.0, 0.0, 1.7172367719607365E9, 0.0, 2024-06-01 03:12:51.960
46.0, -149573.33649079045, -149450.04426837497, -149607.825232485, -149594.6153515119, -149644.5267968806, -149606.9758661957, -149619.87282274637, -159255.01695335115, -0.03, -0.078, 0.9460000000000001, 192.0, 255.0, 16.0, 253.0, 144.0, 29.0, 144.0, 0.0, 0.0, 0.0, 1.717236771960746E9, 0.0, 2024-06-01 03:12:51.960
47.0, -149575.32579604696, -149451.69829746467, -149609.88159297485, -149596.5599532795, -149646.6278608594, -149608.85341272992, -149622.39856986984, -159257.20742430777, -0.03, -0.078, 0.9460000000000001, 192.0, 0.0, 0.0, 0.0, 0.0, 0.0, 0.0, 0.0, 0.0, 0.0, 1.7172367719607556E9, 0.0, 2024-06-01 03:12:51.960
48.0, -149577.292749559, -149453.3299748099, -149611.80384299802, -149598.28103760254, -149648.55011088256, -149610.4627383307, -149624.49963384864, -159258.72734293074, -0.03, -0.078, 0.9460000000000001, 192.0, 0.0, 0.0, 0.0, 0.0, 0.0, 0.0, 0.0, 0.0, 0.0, 1.7172367719607651E9, 0.0, 2024-06-01 03:12:51.960
49.0, -149576.66690071428, -149452.3688497983, -149610.99918019763, -149597.38696782434, -149647.63368935988, -149609.27809587456, -149623.94084023725, -159257.65445919687, -0.03, -0.078, 0.9460000000000001, 192.0, 0.0, 0.0, 0.0, 0.0, 0.0, 0.0, 0.0, 0.0, 0.0, 1.717236771960775E9, 0.0, 2024-06-01 03:12:51.960
50.0, -149573.91763614627, -149449.39606778577, -149608.316970863, -149594.570648023, -149644.9738317697, -149606.28296211755, -149621.6162588139, -159255.0840085845, -0.03, -0.078, 0.9460000000000001, 192.0, 0.0, 0.0, 0.0, 0.0, 0.0, 0.0, 0.0, 0.0, 0.0, 1.7172367719607844E9, 0.0, 2024-06-01 03:12:51.960
51.0, -149575.66107221378, -149450.84893117537, -149610.03805518604, -149596.22467711268, -149646.82902655948, -149607.9146394628, -149623.85143325943, -159257.11801732995, -0.03, -0.078, 0.9460000000000001, 192.0, 0.0, 0.0, 0.0, 0.0, 0.0, 0.0, 0.0, 0.0, 0.0, 1.7172367719607942E9, 0.0, 2024-06-01 03:12:51.960
52.0, -149576.555141992, -149451.4300765312, -149610.8650697309, -149596.85052595742, -149647.6783928488, -149608.4734330742, -149624.90196524884, -159257.60975570796, -0.03, -0.078, 0.9460000000000001, 192.0, 0.0, 0.0, 0.0, 0.0, 0.0, 0.0, 0.0, 0.0, 0.0, 1.7172367719608037E9, 0.0, 2024-06-01 03:12:51.960
53.0, -149578.0527088705, -149452.6817742207, -149612.25087788713, -149598.07987190248, -149648.99714577166, -149609.47926157466, -149626.28777340506, -159258.54852897508, -0.03, -0.078, 0.9460000000000001, 192.0, 0.0, 0.0, 0.0, 0.0, 0.0, 0.0, 0.0, 0.0, 0.0, 1.7172367719608135E9, 0.0, 2024-06-01 03:12:51.960
54.0, -149579.28205481556, -149453.66525097672, -149613.45787208772, -149599.1527556363, -149650.24884346116, -149610.4627383307, -149627.96415423922, -159259.86728189795, -0.03, -0.078, 0.9460000000000001, 192.0, 0.0, 0.0, 0.0, 0.0, 0.0, 0.0, 0.0, 0.0, 0.0, 1.7172367719608233E9, 0.0, 2024-06-01 03:12:51.960
55.0, -149578.2538745706, -149452.3241463094, -149612.54145056504, -149598.03516841354, -149649.2653667051, -149609.3675028524, -149627.53947109455, -159259.01791560865, -0.03, -0.078, 0.9460000000000001, 192.0, 0.0, 0.0, 0.0, 0.0, 0.0, 0.0, 0.0, 0.0, 0.0, 1.7172367719608328E9, 0.0, 2024-06-01 03:12:51.960
56.0, -149578.0527088705, -149451.6759457202, -149612.18382265375, -149597.63283701334, -149648.84068356047, -149608.808709241, -149627.49476760565, -159258.54852897508, -0.018000000000000002, -0.08, 0.972, 192.0, 255.0, 112.0, 253.0, 128.0, 30.0, 96.0, 0.0, 0.0, 0.0, 1.7172367719608424E9, 0.0, 2024-06-01 03:12:51.960
57.0, -149579.43851702675, -149452.6817742207, -149613.39081685434, -149598.75042423612, -149649.98062252768, -149609.6133720414, -149628.81352052852, -159259.35319177547, -0.018000000000000002, -0.08, 0.972, 192.0, 0.0, 0.0, 0.0, 0.0, 0.0, 0.0, 0.0, 0.0, 0.0, 1.717236771960852E9, 0.0, 2024-06-01 03:12:51.960
58.0, -149578.2985780595, -149451.38537304229, -149612.18382265375, -149597.4540230577, -149648.818331816, -149608.24991562963, -149628.00885772813, -159258.14619757488, -0.018000000000000002, -0.08, 0.972, 192.0, 0.0, 0.0, 0.0, 0.0, 0.0, 0.0, 0.0, 0.0, 0.0, 1.7172367719608617E9, 0.0, 2024-06-01 03:12:51.960
59.0, -149577.51626700358, -149450.29013756398, -149611.44621508673, -149596.6046567684, -149648.1254277379, -149607.35584585142, -149627.76298853912, -159257.67681094134, -0.018000000000000002, -0.08, 0.972, 192.0, 0.0, 0.0, 0.0, 0.0, 0.0, 0.0, 0.0, 0.0, 0.0, 1.7172367719608712E9, 0.0, 2024-06-01 03:12:51.960
60.0, -149578.4103367818, -149450.8265794309, -149612.1614709093, -149597.2528573576, -149648.95244228275, -149607.8699359739, -149628.96998273968, -159258.3920667639, -0.018000000000000002, -0.08, 0.972, 192.0, 0.0, 0.0, 0.0, 0.0, 0.0, 0.0, 0.0, 0.0, 0.0, 1.7172367719608808E9, 0.0, 2024-06-01 03:12:51.960
61.0, -149579.21499958218, -149451.29596606447, -149612.83202324295, -149597.7669474801, -149649.60064287196, -149608.22756388516, -149629.72994205117, -159258.54852897508, -0.018000000000000002, -0.08, 0.972, 192.0, 0.0, 0.0, 0.0, 0.0, 0.0, 0.0, 0.0, 0.0, 0.0, 1.7172367719608903E9, 0.0, 2024-06-01 03:12:51.960
62.0, -149579.03618562655, -149450.9830416421, -149612.7202645207, -149597.4540230577, -149649.4218289163, -149607.73582550714, -149629.86405251792, -159258.2356045527, -0.018000000000000002, -0.08, 0.972, 192.0, 0.0, 0.0, 0.0, 0.0, 0.0, 0.0, 0.0, 0.0, 0.0, 1.7172367719609E9, 0.0, 2024-06-01 03:12:51.960
63.0, -149579.17029609327, -149450.84893117537, -149612.87672673186, -149597.6104852689, -149649.69004984977, -149607.7581772516, -149630.55695659603, -159258.6826394418, -0.018000000000000002, -0.08, 0.972, 192.0, 0.0, 0.0, 0.0, 0.0, 0.0, 0.0, 0.0, 0.0, 0.0, 1.7172367719609096E9, 0.0, 2024-06-01 03:12:51.960
64.0, -149580.4443455272, -149451.85475967583, -149614.12842442136, -149598.72807249168, -149650.94174753927, -149608.9204679633, -149632.21098568573, -159260.02374410914, -0.018000000000000002, -0.08, 0.972, 192.0, 0.0, 0.0, 0.0, 0.0, 0.0, 0.0, 0.0, 0.0, 0.0, 1.7172367719609215E9, 0.0, 2024-06-01 03:12:51.960
65.0, -149580.93608390525, -149451.94416665367, -149614.44134884374, -149598.92923819178, -149651.2099684727, -149608.9651714522, -149632.72507580818, -159259.86728189795, -0.018000000000000002, -0.08, 0.972, 192.0, 0.0, 0.0, 0.0, 0.0, 0.0, 0.0, 0.0, 0.0, 0.0, 1.7172367719609313E9, 0.0, 2024-06-01 03:12:51.960
66.0, -149581.27136007207, -149452.01122188702, -149614.77662501056, -149599.19745912522, -149651.54524463956, -149608.9204679633, -149633.2168141862, -159259.8449301535, -0.022, -0.08, 0.966, 192.0, 255.0, 80.0, 253.0, 128.0, 30.0, 48.0, 0.0, 0.0, 0.0, 1.717236771960941E9, 0.0, 2024-06-01 03:12:51.960
67.0, -149581.47252577217, -149452.01122188702, -149614.93308722175, -149599.2645143586, -149651.7240585952, -149608.9651714522, -149633.8650147754, -159260.3813720204, -0.022, -0.08, 0.966, 192.0, 0.0, 0.0, 0.0, 0.0, 0.0, 0.0, 0.0, 0.0, 0.0, 1.7172367719609504E9, 0.0, 2024-06-01 03:12:51.960
68.0, -149581.0031391386, -149451.20655908663, -149614.39664535483, -149598.59396202493, -149651.321727195, -149608.29461911853, -149633.97677349768, -159260.04609585358, -0.022, -0.08, 0.966, 192.0, 0.0, 0.0, 0.0, 0.0, 0.0, 0.0, 0.0, 0.0, 0.0, 1.71723677196096E9, 0.0, 2024-06-01 03:12:51.960
69.0, -149582.2548368281, -149452.19003584268, -149615.58128781096, -149599.6221422699, -149652.39461092887, -149609.09928191893, -149635.29552642055, -159260.7389999317, -0.022, -0.08, 0.966, 192.0, 0.0, 0.0, 0.0, 0.0, 0.0, 0.0, 0.0, 0.0, 0.0, 1.7172367719609697E9, 0.0, 2024-06-01 03:12:51.960
70.0, -149583.61829323988, -149453.285271321, -149616.81063375602, -149600.69502600373, -149653.69101210727, -149609.99335169714, -149636.79309329906, -159261.70012494328, -0.022, -0.08, 0.966, 192.0, 0.0, 0.0, 0.0, 0.0, 0.0, 0.0, 0.0, 0.0, 0.0, 1.7172367719609792E9, 0.0, 2024-06-01 03:12:51.960
71.0, -149582.053671128, -149451.38537304229, -149615.22365989967, -149598.92923819178, -149652.1263899954, -149608.24991562963, -149635.65315433184, -159260.24726155368, -0.022, -0.08, 0.966, 192.0, 0.0, 0.0, 0.0, 0.0, 0.0, 0.0, 0.0, 0.0, 0.0, 1.7172367719609888E9, 0.0, 2024-06-01 03:12:51.960
72.0, -149582.0983746169, -149451.1842073422, -149615.35777036642, -149599.0186451696, -149652.28285220658, -149608.24991562963, -149636.18959619876, -159260.51548248716, -0.022, -0.08, 0.966, 192.0, 0.0, 0.0, 0.0, 0.0, 0.0, 0.0, 0.0, 0.0, 0.0, 1.7172367719609983E9, 0.0, 2024-06-01 03:12:51.960
73.0, -149582.76892695058, -149451.6312422313, -149616.02832270006, -149599.5550870365, -149652.9757562847, -149608.62989528535, -149637.12836946588, -159260.9401656318, -0.022, -0.08, 0.966, 192.0, 0.0, 0.0, 0.0, 0.0, 0.0, 0.0, 0.0, 0.0, 0.0, 1.7172367719610076E9, 0.0, 2024-06-01 03:12:51.961
74.0, -149581.09254611642, -149449.59723348587, -149614.10607267692, -149597.47637480218, -149651.00880277262, -149606.4170725843, -149635.3625816539, -159258.66028769736, -0.022, -0.08, 0.966, 192.0, 0.0, 0.0, 0.0, 0.0, 0.0, 0.0, 0.0, 0.0, 0.0, 1.7172367719610174E9, 0.0, 2024-06-01 03:12:51.961
75.0, -149582.72422346167, -149450.96068989762, -149615.78245351106, -149599.08570040294, -149652.59577662896, -149607.89228771834, -149637.4636456327, -159260.31431678706, -0.022, -0.08, 0.966, 192.0, 0.0, 0.0, 0.0, 0.0, 0.0, 0.0, 0.0, 0.0, 0.0, 1.7172367719610271E9, 0.0, 2024-06-01 03:12:51.961
76.0, -149582.8136304395, -149450.781875942, -149615.87186048887, -149599.0186451696, -149652.7298870957, -149607.84758422943, -149638.08949447746, -159260.6942964428, -0.028, -0.07200000000000001, 0.97, 192.0, 255.0, 32.0, 253.0, 192.0, 30.0, 80.0, 0.0, 0.0, 0.0, 1.7172367719610367E9, 0.0, 2024-06-01 03:12:51.961
77.0, -149581.1596013498, -149448.9266811522, -149614.10607267692, -149597.14109863533, -149651.03115451708, -149605.90298246182, -149636.59192759896, -159258.7943981641, -0.028, -0.07200000000000001, 0.97, 192.0, 0.0, 0.0, 0.0, 0.0, 0.0, 0.0, 0.0, 0.0, 0.0, 1.717236771961046E9, 0.0, 2024-06-01 03:12:51.961
78.0, -149583.8641624289, -149451.29596606447, -149616.69887503373, -149599.68919750323, -149653.6239568739, -149608.13815690734, -149639.29648867805, -159260.91781388735, -0.028, -0.07200000000000001, 0.97, 192.0, 0.0, 0.0, 0.0, 0.0, 0.0, 0.0, 0.0, 0.0, 0.0, 1.7172367719610555E9, 0.0, 2024-06-01 03:12:51.961
79.0, -149584.53471476256, -149451.74300095357, -149617.34707562294, -149600.2032876257, -149654.2274539742, -149608.4734330742, -149640.3693724119, -159261.49895924318, -0.028, -0.07200000000000001, 0.97, 192.0, 0.0, 0.0, 0.0, 0.0, 0.0, 0.0, 0.0, 0.0, 0.0, 1.717236771961065E9, 0.0, 2024-06-01 03:12:51.961
80.0, -149583.6629967288, -149450.55835849742, -149616.40830235582, -149599.19745912522, -149653.28868070708, -149607.35584585142, -149640.05644798954, -159260.8954621429, -0.028, -0.07200000000000001, 0.97, 192.0, 0.0, 0.0, 0.0, 0.0, 0.0, 0.0, 0.0, 0.0, 0.0, 1.7172367719610748E9, 0.0, 2024-06-01 03:12:51.961
81.0, -149583.23831358412, -149449.8207509304, -149615.93891572225, -149598.5716102805, -149652.88634930688, -149606.68529351774, -149639.89998577835, -159260.3366685315, -0.028, -0.07200000000000001, 0.97, 192.0, 0.0, 0.0, 0.0, 0.0, 0.0, 0.0, 0.0, 0.0, 0.0, 1.7172367719610844E9, 0.0, 2024-06-01 03:12:51.961
82.0, -149582.99244439512, -149449.3737160413, -149615.64834304433, -149598.057520158, -149652.55107314006, -149606.08179641745, -149639.65411658934, -159259.50965398666, -0.028, -0.07200000000000001, 0.97, 192.0, 0.0, 0.0, 0.0, 0.0, 0.0, 0.0, 0.0, 0.0, 0.0, 1.717236771961094E9, 0.0, 2024-06-01 03:12:51.961
83.0, -149583.48418277316, -149449.5301782525, -149616.05067444453, -149598.4151480693, -149652.95340454025, -149606.23825862864, -149640.43642764527, -159259.82257840905, -0.028, -0.07200000000000001, 0.97, 192.0, 0.0, 0.0, 0.0, 0.0, 0.0, 0.0, 0.0, 0.0, 0.0, 1.7172367719611037E9, 0.0, 2024-06-01 03:12:51.961
84.0, -149581.31606356098, -149447.0267828735, -149613.9719622102, -149596.24702885712, -149650.85234056145, -149603.93602894974, -149638.80475030004, -159257.92268013034, -0.028, -0.07200000000000001, 0.97, 192.0, 0.0, 0.0, 0.0, 0.0, 0.0, 0.0, 0.0, 0.0, 0.0, 1.717236771961113E9, 0.0, 2024-06-01 03:12:51.961
85.0, -149580.6455112273, -149446.04330611747, -149613.30140987653, -149595.39766256782, -149650.2264917167, -149603.064310916, -149638.44712238875, -159257.16272081886, -0.028, -0.07200000000000001, 0.97, 192.0, 0.0, 0.0, 0.0, 0.0, 0.0, 0.0, 0.0, 0.0, 0.0, 1.7172367719611225E9, 0.0, 2024-06-01 03:12:51.961
86.0, -149581.74074670562, -149446.8256171734, -149614.17312791027, -149596.17997362377, -149651.2099684727, -149603.6678080163, -149639.5647096115, -159257.67681094134, -0.02, -0.076, 0.972, 192.0, 255.0, 96.0, 253.0, 160.0, 30.0, 96.0, 0.0, 0.0, 0.0, 1.7172367719611356E9, 0.0, 2024-06-01 03:12:51.961
87.0, -149582.6571682283, -149447.49616950707, -149615.00014245513, -149596.87287770188, -149652.0146312731, -149604.29365686103, -149640.72700032318, -159258.41441850836, -0.02, -0.076, 0.972, 192.0, 0.0, 0.0, 0.0, 0.0, 0.0, 0.0, 0.0, 0.0, 0.0, 1.7172367719611454E9, 0.0, 2024-06-01 03:12:51.961
88.0, -149583.61829323988, -149448.30083230746, -149616.02832270006, -149597.8563544579, -149653.0204597736, -149605.2100783837, -149642.29162243506, -159259.62141270895, -0.02, -0.076, 0.972, 192.0, 0.0, 0.0, 0.0, 0.0, 0.0, 0.0, 0.0, 0.0, 0.0, 1.717236771961155E9, 0.0, 2024-06-01 03:12:51.961
89.0, -149583.64064498432, -149448.05496311843, -149615.93891572225, -149597.7222439912, -149653.10986675142, -149604.9642091947, -149642.64925034635, -159259.77787492014, -0.02, -0.076, 0.972, 192.0, 0.0, 0.0, 0.0, 0.0, 0.0, 0.0, 0.0, 0.0, 0.0, 1.7172367719611647E9, 0.0, 2024-06-01 03:12:51.961
90.0, -149583.93121766226, -149448.032611374, -149616.20713665572, -149597.83400271344, -149653.3780876849, -149604.85245047242, -149643.05158174655, -159259.59906096448, -0.02, -0.076, 0.972, 192.0, 0.0, 0.0, 0.0, 0.0, 0.0, 0.0, 0.0, 0.0, 0.0, 1.7172367719611745E9, 0.0, 2024-06-01 03:12:51.961
91.0, -149586.63577874136, -149450.44659977517, -149618.84464250144, -149600.2703428591, -149655.83677957498, -149607.2217353847, -149645.8679015479, -159261.9906976212, -0.02, -0.076, 0.972, 192.0, 0.0, 0.0, 0.0, 0.0, 0.0, 0.0, 0.0, 0.0, 0.0, 1.717236771961184E9, 0.0, 2024-06-01 03:12:51.961
92.0, -149586.56872350798, -149450.11132360832, -149618.68818029025, -149600.09152890343, -149655.85913131942, -149606.84175572894, -149646.18082597028, -159262.080104599, -0.02, -0.076, 0.972, 192.0, 0.0, 0.0, 0.0, 0.0, 0.0, 0.0, 0.0, 0.0, 0.0, 1.7172367719611936E9, 0.0, 2024-06-01 03:12:51.961
93.0, -149585.6523019853, -149448.8149224299, -149617.63764830085, -149598.9068864473, -149655.00976503012, -149605.6571132728, -149645.64438410336, -159261.20838656527, -0.02, -0.076, 0.972, 192.0, 0.0, 0.0, 0.0, 0.0, 0.0, 0.0, 0.0, 0.0, 0.0, 1.717236771961203E9, 0.0, 2024-06-01 03:12:51.961
94.0, -149586.9039996748, -149449.8207509304, -149618.82229075697, -149599.97977018115, -149656.14970399736, -149606.68529351774, -149647.09724749296, -159262.05775285457, -0.02, -0.076, 0.972, 192.0, 0.0, 0.0, 0.0, 0.0, 0.0, 0.0, 0.0, 0.0, 0.0, 1.7172367719612129E9, 0.0, 2024-06-01 03:12:51.961
95.0, -149586.79224095252, -149449.50782650802, -149618.77758726806, -149599.82330797, -149655.9708900417, -149606.2159068842, -149647.23135795968, -159261.72247668775, -0.02, -0.076, 0.972, 192.0, 0.0, 0.0, 0.0, 0.0, 0.0, 0.0, 0.0, 0.0, 0.0, 1.7172367719612224E9, 0.0, 2024-06-01 03:12:51.961
96.0, -149587.23927584162, -149449.68664046368, -149619.15756692382, -149600.1585841368, -149656.328517953, -149606.4170725843, -149648.03602076008, -159262.16951157685, -0.028, -0.078, 0.972, 192.0, 255.0, 32.0, 253.0, 144.0, 30.0, 96.0, 0.0, 0.0, 0.0, 1.717236771961232E9, 0.0, 2024-06-01 03:12:51.961
97.0, -149586.59107525242, -149448.65846021872, -149618.4646628457, -149599.4209765698, -149655.70266910823, -149605.54535455053, -149647.83485505998, -159261.6330697099, -0.028, -0.078, 0.972, 192.0, 0.0, 0.0, 0.0, 0.0, 0.0, 0.0, 0.0, 0.0, 0.0, 1.7172367719612415E9, 0.0, 2024-06-01 03:12:51.961
98.0, -149587.2616275861, -149449.10549510783, -149619.04580820154, -149599.8680114589, -149656.48498016418, -149605.9700376952, -149648.7736283271, -159262.0354011101, -0.028, -0.078, 0.972, 192.0, 0.0, 0.0, 0.0, 0.0, 0.0, 0.0, 0.0, 0.0, 0.0, 1.7172367719612513E9, 0.0, 2024-06-01 03:12:51.961
99.0, -149586.97105490818, -149448.43494277418, -149618.48701459015, -149599.19745912522, -149655.8144278305, -149605.1653748948, -149648.43835216027, -159261.29779354308, -0.028, -0.078, 0.972, 192.0, 0.0, 0.0, 0.0, 0.0, 0.0, 0.0, 0.0, 0.0, 0.0, 1.7172367719612608E9, 0.0, 2024-06-01 03:12:51.961
100.0, -149586.6134269969, -149447.8314456739, -149618.15173842333, -149598.63866551383, -149655.50150340816, -149604.5618777945, -149648.43835216027, -159260.91781388735, -0.028, -0.078, 0.972, 192.0, 0.0, 0.0, 0.0, 0.0, 0.0, 0.0, 0.0, 0.0, 0.0, 1.7172367719612703E9, 0.0, 2024-06-01 03:12:51.961
101.0, -149587.57455200847, -149448.5690532409, -149619.15756692382, -149599.57743878098, -149656.64144237537, -149605.38889233934, -149649.89121554987, -159262.10245634348, -0.028, -0.078, 0.972, 192.0, 0.0, 0.0, 0.0, 0.0, 0.0, 0.0, 0.0, 0.0, 0.0, 1.7172367719612799E9, 0.0, 2024-06-01 03:12:51.961
102.0, -149588.17804910877, -149448.770218941, -149619.78341576856, -149599.9574184367, -149657.1778842423, -149605.70181676172, -149650.7629335836, -159262.46008425477, -0.028, -0.078, 0.972, 192.0, 0.0, 0.0, 0.0, 0.0, 0.0, 0.0, 0.0, 0.0, 0.0, 1.7172367719612896E9, 0.0, 2024-06-01 03:12:51.961
103.0, -149587.8651246864, -149448.1667218407, -149619.44813960174, -149599.39862482532, -149656.70849760872, -149604.9642091947, -149650.40530567232, -159261.67777319884, -0.028, -0.078, 0.972, 192.0, 0.0, 0.0, 0.0, 0.0, 0.0, 0.0, 0.0, 0.0, 0.0, 1.7172367719612992E9, 0.0, 2024-06-01 03:12:51.961
104.0, -149587.8651246864, -149447.85379741836, -149619.29167739055, -149599.24216261413, -149656.59673888647, -149604.62893302785, -149650.6735266058, -159261.588366221, -0.028, -0.078, 0.972, 192.0, 0.0, 0.0, 0.0, 0.0, 0.0, 0.0, 0.0, 0.0, 0.0, 1.7172367719613087E9, 0.0, 2024-06-01 03:12:51.961
105.0, -149588.22275259768, -149447.98790788508, -149619.60460181293, -149599.53273529204, -149657.15553249783, -149604.89715396133, -149651.6122998729, -159262.2365668102, -0.028, -0.078, 0.972, 192.0, 0.0, 0.0, 0.0, 0.0, 0.0, 0.0, 0.0, 0.0, 0.0, 1.7172367719613185E9, 0.0, 2024-06-01 03:12:51.961
106.0, -149587.68631073073, -149447.16089334022, -149618.97875296816, -149598.7727759806, -149656.70849760872, -149604.1148429054, -149651.45583766172, -159261.5436627321, -0.03, -0.078, 0.974, 192.0, 255.0, 16.0, 253.0, 144.0, 30.0, 112.0, 0.0, 0.0, 0.0, 1.717236771961328E9, 0.0, 2024-06-01 03:12:51.961
107.0, -149589.13917412033, -149448.25612881852, -149620.31985763548, -149600.00212192562, -149657.93784355378, -149605.2100783837, -149652.99810802916, -159262.41538076586, -0.03, -0.078, 0.974, 192.0, 0.0, 0.0, 0.0, 0.0, 0.0, 0.0, 0.0, 0.0, 0.0, 1.7172367719613402E9, 0.0, 2024-06-01 03:12:51.961
108.0, -149590.97201716568, -149449.6642887192, -149621.99623846964, -149601.54439229303, -149659.43541043228, -149606.5735347955, -149654.89800630786, -159263.91294764436, -0.03, -0.078, 0.974, 192.0, 0.0, 0.0, 0.0, 0.0, 0.0, 0.0, 0.0, 0.0, 0.0, 1.7172367719613497E9, 0.0, 2024-06-01 03:12:51.961
109.0, -149589.87678168737, -149448.4796462631, -149620.92335473577, -149600.49386030363, -149658.54134065408, -149605.38889233934, -149654.33921269648, -159263.0859330995, -0.03, -0.078, 0.974, 192.0, 0.0, 0.0, 0.0, 0.0, 0.0, 0.0, 0.0, 0.0, 0.0, 1.7172367719613593E9, 0.0, 2024-06-01 03:12:51.961
110.0, -149589.51915377608, -149447.8761491628, -149620.65513380233, -149600.02447367008, -149658.3178232095, -149604.89715396133, -149654.40626792982, -159262.81771216606, -0.03, -0.078, 0.974, 192.0, 0.0, 0.0, 0.0, 0.0, 0.0, 0.0, 0.0, 0.0, 0.0, 1.717236771961369E9, 0.0, 2024-06-01 03:12:51.961
111.0, -149589.8544299429, -149447.94320439617, -149621.03511345806, -149600.24799111462, -149658.58604414298, -149604.9642091947, -149654.85330281893, -159262.7953604216, -0.03, -0.078, 0.974, 192.0, 0.0, 0.0, 0.0, 0.0, 0.0, 0.0, 0.0, 0.0, 0.0, 1.7172367719613783E9, 0.0, 2024-06-01 03:12:51.961
112.0, -149591.28494158803, -149449.10549510783, -149622.35386638093, -149601.49968880412, -149659.83774183248, -149606.059444673, -149656.48498016418, -159263.91294764436, -0.03, -0.078, 0.974, 192.0, 0.0, 0.0, 0.0, 0.0, 0.0, 0.0, 0.0, 0.0, 0.0, 1.717236771961388E9, 0.0, 2024-06-01 03:12:51.961
113.0, -149591.1061276324, -149448.63610847428, -149622.10799719192, -149601.18676438174, -149659.7259831102, -149605.63476152834, -149656.70849760872, -159263.82354066655, -0.03, -0.078, 0.974, 192.0, 0.0, 0.0, 0.0, 0.0, 0.0, 0.0, 0.0, 0.0, 0.0, 1.7172367719613976E9, 0.0, 2024-06-01 03:12:51.961
114.0, -149590.4579270432, -149447.8314456739, -149621.50450009163, -149600.42680507028, -149659.1224860099, -149604.89715396133, -149656.574387142, -159263.30945054407, -0.03, -0.078, 0.974, 192.0, 0.0, 0.0, 0.0, 0.0, 0.0, 0.0, 0.0, 0.0, 0.0, 1.7172367719614072E9, 0.0, 2024-06-01 03:12:51.961
115.0, -149591.41905205479, -149448.50199800756, -149622.33151463646, -149601.14206089283, -149659.99420404367, -149605.45594757271, -149657.64727087587, -159263.91294764436, -0.03, -0.078, 0.974, 192.0, 0.0, 0.0, 0.0, 0.0, 0.0, 0.0, 0.0, 0.0, 0.0, 1.7172367719614167E9, 0.0, 2024-06-01 03:12:51.961
116.0, -149591.0167206546, -149447.6749834627, -149621.79507276954, -149600.42680507028, -149659.43541043228, -149604.6736365168, -149657.3790499424, -159263.22004356625, -0.024, -0.076, 0.978, 192.0, 255.0, 64.0, 253.0, 160.0, 30.0, 144.0, 0.0, 0.0, 0.0, 1.7172367719614263E9, 0.0, 2024-06-01 03:12:51.961
117.0, -149590.88261018787, -149447.3173555514, -149621.6162588139, -149600.24799111462, -149659.32365171, -149604.20424988322, -149657.5802156425, -159262.9965261217, -0.024, -0.076, 0.978, 192.0, 0.0, 0.0, 0.0, 0.0, 0.0, 0.0, 0.0, 0.0, 0.0, 1.7172367719614358E9, 0.0, 2024-06-01 03:12:51.961
118.0, -149591.88843868833, -149448.05496311843, -149622.51032859212, -149601.05265391502, -149660.39653544387, -149605.03126442805, -149658.9213203098, -159264.06940985555, -0.024, -0.076, 0.978, 192.0, 0.0, 0.0, 0.0, 0.0, 0.0, 0.0, 0.0, 0.0, 0.0, 1.7172367719614453E9, 0.0, 2024-06-01 03:12:51.961
119.0, -149593.38600556683, -149449.23960557458, -149623.98554372616, -149602.39375858233, -149661.89410232237, -149606.4170725843, -149660.70945986622, -159265.3881627784, -0.024, -0.076, 0.978, 192.0, 0.0, 0.0, 0.0, 0.0, 0.0, 0.0, 0.0, 0.0, 0.0, 1.7172367719614549E9, 0.0, 2024-06-01 03:12:51.961
120.0, -149594.72711023418, -149450.33484105289, -149625.30429664903, -149603.556049294, -149663.1234482674, -149607.40054934032, -149662.3858407004, -159266.30458430108, -0.024, -0.076, 0.978, 192.0, 0.0, 0.0, 0.0, 0.0, 0.0, 0.0, 0.0, 0.0, 0.0, 1.7172367724415157E9, 0.0, 2024-06-01 03:12:52.441
121.0, -149594.72711023418, -149450.0219166305, -149625.23724141566, -149603.4219388273, -149663.0787447785, -149607.1099766624, -149662.6764133783, -159266.25988081217, -0.024, -0.076, 0.978, 192.0, 0.0, 0.0, 0.0, 0.0, 0.0, 0.0, 0.0, 0.0, 0.0, 1.7172367724415536E9, 0.0, 2024-06-01 03:12:52.441
122.0, -149594.8612207009, -149449.99956488606, -149625.34900013794, -149603.4219388273, -149663.2799104786, -149606.9758661957, -149663.1681517563, -159266.50575000118, -0.024, -0.076, 0.978, 192.0, 0.0, 0.0, 0.0, 0.0, 0.0, 0.0, 0.0, 0.0, 0.0, 1.7172367724415789E9, 0.0, 2024-06-01 03:12:52.441
123.0, -149594.92827593428, -149449.6642887192, -149625.30429664903, -149603.28782836054, -149663.30226222303, -149606.6629417733, -149663.39166920088, -159266.30458430108, -0.024, -0.076, 0.978, 192.0, 0.0, 0.0, 0.0, 0.0, 0.0, 0.0, 0.0, 0.0, 0.0, 1.7172367724416046E9, 0.0, 2024-06-01 03:12:52.441
124.0, -149594.07890964497, -149448.5690532409, -149624.566689082, -149602.32670334898, -149662.4752476782, -149605.59005803944, -149662.89993082284, -159265.25405231168, -0.024, -0.076, 0.978, 192.0, 0.0, 0.0, 0.0, 0.0, 0.0, 0.0, 0.0, 0.0, 0.0, 1.7172367724416265E9, 0.0, 2024-06-01 03:12:52.441
125.0, -149594.1012613894, -149448.3231840519, -149624.45493035973, -149602.14788939332, -149662.34113721148, -149605.34418885043, -149663.1234482674, -159265.1422935894, -0.024, -0.076, 0.978, 192.0, 0.0, 0.0, 0.0, 0.0, 0.0, 0.0, 0.0, 0.0, 0.0, 1.7172367724416485E9, 0.0, 2024-06-01 03:12:52.441
126.0, -149594.54829627852, -149448.41259102972, -149624.87961350437, -149602.4161103268, -149662.69876512274, -149605.5230028061, -149663.90575932333, -159265.6340319674, -0.032, -0.08, 0.978, 192.0, 255.0, 0.0, 253.0, 128.0, 30.0, 144.0, 0.0, 0.0, 0.0, 1.7172367724416704E9, 0.0, 2024-06-01 03:12:52.441
127.0, -149593.8553922004, -149447.49616950707, -149624.18670942626, -149601.54439229303, -149662.0282127891, -149604.5171743056, -149663.5257796676, -159264.76231393366, -0.032, -0.08, 0.978, 192.0, 0.0, 0.0, 0.0, 0.0, 0.0, 0.0, 0.0, 0.0, 0.0, 1.717236772441692E9, 0.0, 2024-06-01 03:12:52.441
128.0, -149593.8553922004, -149447.1161898513, -149623.85143325943, -149601.27617135958, -149661.9164540668, -149604.1148429054, -149663.65989013432, -159264.24822381118, -0.032, -0.08, 0.978, 192.0, 0.0, 0.0, 0.0, 0.0, 0.0, 0.0, 0.0, 0.0, 0.0, 1.7172367724417207E9, 0.0, 2024-06-01 03:12:52.441
129.0, -149594.79416546752, -149447.9208526517, -149624.81255827102, -149602.10318590442, -149662.89993082284, -149604.85245047242, -149664.88923607938, -159265.1422935894, -0.032, -0.08, 0.978, 192.0, 0.0, 0.0, 0.0, 0.0, 0.0, 0.0, 0.0, 0.0, 0.0, 1.7172367724417458E9, 0.0, 2024-06-01 03:12:52.441
130.0, -149593.7659852226, -149446.6244514733, -149623.89613674834, -149600.98559868164, -149661.93880581128, -149603.556049294, -149664.35279421243, -159264.20352032228, -0.032, -0.08, 0.978, 192.0, 0.0, 0.0, 0.0, 0.0, 0.0, 0.0, 0.0, 0.0, 0.0, 1.7172367724417677E9, 0.0, 2024-06-01 03:12:52.441
131.0, -149594.1683166228, -149446.7138584511, -149624.29846814854, -149601.2091161262, -149662.318785467, -149603.73486324964, -149665.09040177948, -159264.4940930002, -0.032, -0.08, 0.978, 192.0, 0.0, 0.0, 0.0, 0.0, 0.0, 0.0, 0.0, 0.0, 0.0, 1.717236772441783E9, 0.0, 2024-06-01 03:12:52.441
132.0, -149595.28590384554, -149447.5185212515, -149625.17018618228, -149601.99142718213, -149663.1681517563, -149604.5171743056, -149666.29739598004, -159265.16464533386, -0.032, -0.08, 0.978, 192.0, 0.0, 0.0, 0.0, 0.0, 0.0, 0.0, 0.0, 0.0, 0.0, 1.7172367724417942E9, 0.0, 2024-06-01 03:12:52.441
133.0, -149594.52594453408, -149446.3785822843, -149624.27611640407, -149601.05265391502, -149662.34113721148, -149603.39958708282, -149665.6715471353, -159264.22587206675, -0.032, -0.08, 0.978, 192.0, 0.0, 0.0, 0.0, 0.0, 0.0, 0.0, 0.0, 0.0, 0.0, 1.7172367724418042E9, 0.0, 2024-06-01 03:12:52.441
134.0, -149595.39766256782, -149447.09383810687, -149625.19253792675, -149601.83496497094, -149663.3693174564, -149604.13719464984, -149666.99030005818, -159265.32110754505, -0.032, -0.08, 0.978, 192.0, 0.0, 0.0, 0.0, 0.0, 0.0, 0.0, 0.0, 0.0, 0.0, 1.7172367724418144E9, 0.0, 2024-06-01 03:12:52.441
135.0, -149594.570648023, -149446.04330611747, -149624.43257861526, -149600.98559868164, -149662.60935814492, -149603.2654766161, -149666.6326721469, -159264.4940930002, -0.032, -0.08, 0.978, 192.0, 0.0, 0.0, 0.0, 0.0, 0.0, 0.0, 0.0, 0.0, 0.0, 1.717236772441824E9, 0.0, 2024-06-01 03:12:52.441
136.0, -149595.57647652348, -149446.7138584511, -149625.28194490456, -149601.6561510153, -149663.50342792313, -149603.8242702275, -149667.7726111141, -159265.0975901005, -0.018000000000000002, -0.09, 0.982, 192.0, 255.0, 112.0, 253.0, 48.0, 30.0, 176.0, 0.0, 0.0, 0.0, 1.717236772441834E9, 0.0, 2024-06-01 03:12:52.441
137.0, -149595.97880792368, -149446.80326542896, -149625.63957281585, -149601.87966845985, -149663.74929711214, -149603.80191848302, -149668.3761082144, -159265.32110754505, -0.018000000000000002, -0.09, 0.982, 192.0, 0.0, 0.0, 0.0, 0.0, 0.0, 0.0, 0.0, 0.0, 0.0, 1.7172367724418437E9, 0.0, 2024-06-01 03:12:52.441
138.0, -149594.1683166228, -149444.6798497057, -149623.85143325943, -149600.02447367008, -149662.09526802247, -149601.7232062487, -149666.96794831372, -159263.66707845536, -0.018000000000000002, -0.09, 0.982, 192.0, 0.0, 0.0, 0.0, 0.0, 0.0, 0.0, 0.0, 0.0, 0.0, 1.7172367724418535E9, 0.0, 2024-06-01 03:12:52.441
139.0, -149593.87774394487, -149444.14340783877, -149623.60556407043, -149599.6221422699, -149661.827047089, -149601.3655783374, -149667.10205878044, -159263.35415403298, -0.018000000000000002, -0.09, 0.982, 192.0, 0.0, 0.0, 0.0, 0.0, 0.0, 0.0, 0.0, 0.0, 0.0, 1.7172367724418635E9, 0.0, 2024-06-01 03:12:52.441
140.0, -149593.43070905577, -149443.40580027175, -149623.00206697013, -149598.92923819178, -149661.29060522208, -149600.6056190259, -149666.90089308034, -159262.41538076586, -0.018000000000000002, -0.09, 0.982, 192.0, 0.0, 0.0, 0.0, 0.0, 0.0, 0.0, 0.0, 0.0, 0.0, 1.7172367724418736E9, 0.0, 2024-06-01 03:12:52.441
141.0, -149593.83304045594, -149443.49520724957, -149623.33734313695, -149599.13040389185, -149661.6705848778, -149600.65032251482, -149667.5267419251, -159262.5941947215, -0.018000000000000002, -0.09, 0.982, 192.0, 0.0, 0.0, 0.0, 0.0, 0.0, 0.0, 0.0, 0.0, 0.0, 1.7172367724418833E9, 0.0, 2024-06-01 03:12:52.441
142.0, -149596.24702885712, -149445.6633264617, -149625.81838677148, -149601.43263357074, -149664.1739802568, -149602.88549696034, -149670.320709982, -159265.1422935894, -0.018000000000000002, -0.09, 0.982, 192.0, 0.0, 0.0, 0.0, 0.0, 0.0, 0.0, 0.0, 0.0, 0.0, 1.7172367724418933E9, 0.0, 2024-06-01 03:12:52.441
143.0, -149597.18580212424, -149446.3785822843, -149626.75716003863, -149602.39375858233, -149665.1798087573, -149603.73486324964, -149671.840628605, -159266.25988081217, -0.018000000000000002, -0.09, 0.982, 192.0, 0.0, 0.0, 0.0, 0.0, 0.0, 0.0, 0.0, 0.0, 0.0, 1.717236772441903E9, 0.0, 2024-06-01 03:12:52.441
144.0, -149598.32574109148, -149447.3173555514, -149627.87474726138, -149603.39958708282, -149666.25269249114, -149604.49482256113, -149673.20408501674, -159267.15395059038, -0.018000000000000002, -0.09, 0.982, 192.0, 0.0, 0.0, 0.0, 0.0, 0.0, 0.0, 0.0, 0.0, 0.0, 1.7172367724419131E9, 0.0, 2024-06-01 03:12:52.441
145.0, -149598.19163062473, -149446.75856194002, -149627.58417458346, -149602.99725568263, -149665.96211981322, -149603.89132546083, -149673.06997455002, -159266.50575000118, -0.018000000000000002, -0.09, 0.982, 192.0, 0.0, 0.0, 0.0, 0.0, 0.0, 0.0, 0.0, 0.0, 0.0, 1.7172367724419231E9, 0.0, 2024-06-01 03:12:52.441
146.0, -149597.7222439912, -149445.88684390628, -149626.91362224982, -149602.23729637114, -149665.40332620183, -149603.04195917153, -149672.80175361654, -159265.9469563898, -0.046, -0.052000000000000005, 0.988, 192.0, 254.0, 144.0, 254.0, 96.0, 30.0, 224.0, 0.0, 0.0, 0.0, 1.717236772441933E9, 0.0, 2024-06-01 03:12:52.441
147.0, -149600.8738399594, -149448.8149224299, -149630.08756996246, -149605.23243012815, -149668.66668089232, -149606.1712033953, -149676.35568098494, -159269.344421547, -0.046, -0.052000000000000005, 0.988, 192.0, 0.0, 0.0, 0.0, 0.0, 0.0, 0.0, 0.0, 0.0, 0.0, 1.7172367724419427E9, 0.0, 2024-06-01 03:12:52.441
148.0, -149602.3043516045, -149450.04426837497, -149631.56278509652, -149606.50647956211, -149670.09719253745, -149607.4229010848, -149678.14382054136, -159270.66317446987, -0.046, -0.052000000000000005, 0.988, 192.0, 0.0, 0.0, 0.0, 0.0, 0.0, 0.0, 0.0, 0.0, 0.0, 1.7172367724419527E9, 0.0, 2024-06-01 03:12:52.441
149.0, -149601.83496497094, -149449.23960557458, -149630.9145845073, -149605.67946501725, -149669.4713436927, -149606.59588653993, -149677.830896119, -159269.70204945828, -0.046, -0.052000000000000005, 0.988, 192.0, 0.0, 0.0, 0.0, 0.0, 0.0, 0.0, 0.0, 0.0, 0.0, 1.7172367724419627E9, 0.0, 2024-06-01 03:12:52.441
150.0, -149601.07500565948, -149448.14437009627, -149630.08756996246, -149604.7630434946, -149668.75608787013, -149605.50065106162, -149677.40621297434, -159268.7856279356, -0.046, -0.052000000000000005, 0.988, 192.0, 0.0, 0.0, 0.0, 0.0, 0.0, 0.0, 0.0, 0.0, 0.0, 1.7172367724419725E9, 0.0, 2024-06-01 03:12:52.441
151.0, -149601.05265391502, -149447.8314456739, -149630.10992170693, -149604.6736365168, -149668.6890326368, -149605.18772663924, -149677.76384088563, -159268.8303314245, -0.046, -0.052000000000000005, 0.988, 192.0, 0.0, 0.0, 0.0, 0.0, 0.0, 0.0, 0.0, 0.0, 0.0, 1.7172367724419823E9, 0.0, 2024-06-01 03:12:52.441
152.0, -149601.58909578194, -149448.14437009627, -149630.57930834047, -149604.9642091947, -149669.20312275924, -149605.45594757271, -149678.56850368602, -159269.25501456918, -0.046, -0.052000000000000005, 0.988, 192.0, 0.0, 0.0, 0.0, 0.0, 0.0, 0.0, 0.0, 0.0, 0.0, 1.717236772441992E9, 0.0, 2024-06-01 03:12:52.441
153.0, -149601.38793008184, -149447.65263171826, -149630.24403217365, -149604.53952605004, -149668.84549484798, -149604.9642091947, -149678.54615194155, -159268.71857270226, -0.046, -0.052000000000000005, 0.988, 192.0, 0.0, 0.0, 0.0, 0.0, 0.0, 0.0, 0.0, 0.0, 0.0, 1.7172367724420018E9, 0.0, 2024-06-01 03:12:52.442
154.0, -149601.09735740392, -149447.0714863624, -149629.90875600683, -149604.18189813875, -149668.5325704256, -149604.38306383885, -149678.54615194155, -159268.27153781315, -0.046, -0.052000000000000005, 0.988, 192.0, 0.0, 0.0, 0.0, 0.0, 0.0, 0.0, 0.0, 0.0, 0.0, 1.7172367724420116E9, 0.0, 2024-06-01 03:12:52.442
155.0, -149600.7620812371, -149446.60209972886, -149629.64053507335, -149603.8242702275, -149668.3314047255, -149603.93602894974, -149678.65791066384, -159268.11507560196, -0.046, -0.052000000000000005, 0.988, 192.0, 0.0, 0.0, 0.0, 0.0, 0.0, 0.0, 0.0, 0.0, 0.0, 1.7172367724420211E9, 0.0, 2024-06-01 03:12:52.442
156.0, -149602.2149446267, -149447.7643904405, -149631.09339846295, -149605.0089126836, -149669.7842681151, -149605.0089126836, -149680.334291498, -159269.45618026928, -0.024, -0.064, 0.994, 192.0, 255.0, 64.0, 254.0, 0.0, 31.0, 16.0, 0.0, 0.0, 0.0, 1.7172367724420323E9, 0.0, 2024-06-01 03:12:52.442
157.0, -149604.18189813875, -149449.35136429686, -149632.83683453046, -149606.72999700665, -149671.5277041826, -149606.6182382844, -149682.41300373233, -159271.02080238116, -0.024, -0.064, 0.994, 192.0, 0.0, 0.0, 0.0, 0.0, 0.0, 0.0, 0.0, 0.0, 0.0, 1.7172367724420476E9, 0.0, 2024-06-01 03:12:52.442
158.0, -149603.60075278292, -149448.4796462631, -149632.14393045235, -149605.99238943963, -149670.85715184893, -149605.70181676172, -149682.10007930995, -159270.17143609186, -0.024, -0.064, 0.994, 192.0, 0.0, 0.0, 0.0, 0.0, 0.0, 0.0, 0.0, 0.0, 0.0, 1.7172367724420617E9, 0.0, 2024-06-01 03:12:52.442
159.0, -149604.5171743056, -149449.1278468523, -149633.06035197503, -149606.9088109623, -149671.9300355828, -149606.50647956211, -149683.41883223283, -159271.17726459232, -0.024, -0.064, 0.994, 192.0, 0.0, 0.0, 0.0, 0.0, 0.0, 0.0, 0.0, 0.0, 0.0, 1.717236772442076E9, 0.0, 2024-06-01 03:12:52.442
160.0, -149606.68529351774, -149450.9830416421, -149635.13906420936, -149608.87576447436, -149674.12050653942, -149608.45108132972, -149685.92222761182, -159273.2336250822, -0.024, -0.064, 0.994, 192.0, 0.0, 0.0, 0.0, 0.0, 0.0, 0.0, 0.0, 0.0, 0.0, 1.7172367724420905E9, 0.0, 2024-06-01 03:12:52.442
161.0, -149606.50647956211, -149450.51365500852, -149634.80378804254, -149608.40637784082, -149673.80758211704, -149607.9146394628, -149685.89987586736, -159272.80894193758, -0.024, -0.064, 0.994, 192.0, 0.0, 0.0, 0.0, 0.0, 0.0, 0.0, 0.0, 0.0, 0.0, 1.7172367724421053E9, 0.0, 2024-06-01 03:12:52.442
162.0, -149604.45011907222, -149448.1667218407, -149632.70272406374, -149606.1712033953, -149671.7735733716, -149605.63476152834, -149684.06703282203, -159270.52906400312, -0.024, -0.064, 0.994, 192.0, 0.0, 0.0, 0.0, 0.0, 0.0, 0.0, 0.0, 0.0, 0.0, 1.7172367724421215E9, 0.0, 2024-06-01 03:12:52.442
163.0, -149602.72903474915, -149446.15506483975, -149630.98163974067, -149604.29365686103, -149670.05248904854, -149603.60075278292, -149682.6812246658, -159268.7409244467, -0.024, -0.064, 0.994, 192.0, 0.0, 0.0, 0.0, 0.0, 0.0, 0.0, 0.0, 0.0, 0.0, 1.7172367724421356E9, 0.0, 2024-06-01 03:12:52.442
164.0, -149602.88549696034, -149446.020954373, -149631.07104671848, -149604.33836034994, -149670.25365474864, -149603.556049294, -149683.26237002164, -159268.85268316898, -0.024, -0.064, 0.994, 192.0, 0.0, 0.0, 0.0, 0.0, 0.0, 0.0, 0.0, 0.0, 0.0, 1.7172367724421456E9, 0.0, 2024-06-01 03:12:52.442
165.0, -149604.5618777945, -149447.3173555514, -149632.65802057483, -149605.7241685062, -149671.81827686052, -149604.98656093914, -149685.13991655587, -159270.2384913252, -0.024, -0.064, 0.994, 192.0, 0.0, 0.0, 0.0, 0.0, 0.0, 0.0, 0.0, 0.0, 0.0, 1.7172367724421556E9, 0.0, 2024-06-01 03:12:52.442
166.0, -149606.39472083983, -149448.99373638557, -149634.4685118757, -149607.6240667849, -149673.69582339475, -149606.59588653993, -149687.26333227914, -159272.02663088162, -0.028, -0.07, 0.98, 192.0, 255.0, 32.0, 253.0, 208.0, 30.0, 160.0, 0.0, 0.0, 0.0, 1.7172367724421656E9, 0.0, 2024-06-01 03:12:52.442
167.0, -149606.6182382844, -149449.01608813, -149634.6696775758, -149607.7581772516, -149674.0310995616, -149606.52883130655, -149687.88918112387, -159272.339555304, -0.028, -0.07, 0.98, 192.0, 0.0, 0.0, 0.0, 0.0, 0.0, 0.0, 0.0, 0.0, 0.0, 1.7172367724421756E9, 0.0, 2024-06-01 03:12:52.442
168.0, -149607.78052899605, -149449.88780616378, -149635.85432003194, -149608.808709241, -149675.14868678435, -149607.4676045737, -149689.4314514913, -159273.41243903787, -0.028, -0.07, 0.98, 192.0, 0.0, 0.0, 0.0, 0.0, 0.0, 0.0, 0.0, 0.0, 0.0, 1.7172367724421854E9, 0.0, 2024-06-01 03:12:52.442
169.0, -149608.4734330742, -149450.31248930842, -149636.4131136433, -149609.30044761903, -149675.75218388464, -149607.93699120724, -149690.30316952505, -159273.85947392698, -0.028, -0.07, 0.98, 192.0, 0.0, 0.0, 0.0, 0.0, 0.0, 0.0, 0.0, 0.0, 0.0, 1.7172367724421952E9, 0.0, 2024-06-01 03:12:52.442
170.0, -149607.44525282923, -149449.03843987448, -149635.3625816539, -149608.00404644062, -149674.65694840634, -149606.59588653993, -149689.45380323575, -159272.51836925966, -0.028, -0.07, 0.98, 192.0, 0.0, 0.0, 0.0, 0.0, 0.0, 0.0, 0.0, 0.0, 0.0, 1.7172367724422052E9, 0.0, 2024-06-01 03:12:52.442
171.0, -149605.1206714059, -149446.4679892621, -149632.97094499719, -149605.50065106162, -149672.3770704719, -149604.0254359276, -149687.41979449033, -159270.082029114, -0.028, -0.07, 0.98, 192.0, 0.0, 0.0, 0.0, 0.0, 0.0, 0.0, 0.0, 0.0, 0.0, 1.7172367724422152E9, 0.0, 2024-06-01 03:12:52.442
172.0, -149606.1264999064, -149447.20559682912, -149633.95442175324, -149606.35001735092, -149673.4276024613, -149604.83009872795, -149688.80560264655, -159271.0878576145, -0.028, -0.07, 0.98, 192.0, 0.0, 0.0, 0.0, 0.0, 0.0, 0.0, 0.0, 0.0, 0.0, 1.7172367724422252E9, 0.0, 2024-06-01 03:12:52.442
173.0, -149606.5735347955, -149447.3173555514, -149634.24499443115, -149606.5735347955, -149673.7852303726, -149604.94185745023, -149689.49850672466, -159271.37843029242, -0.028, -0.07, 0.98, 192.0, 0.0, 0.0, 0.0, 0.0, 0.0, 0.0, 0.0, 0.0, 0.0, 1.7172367724422348E9, 0.0, 2024-06-01 03:12:52.442
174.0, -149608.9651714522, -149449.4184195302, -149636.54722411005, -149608.7640057521, -149676.04275656256, -149606.99821794013, -149692.13601257038, -159273.52419776013, -0.028, -0.07, 0.98, 192.0, 0.0, 0.0, 0.0, 0.0, 0.0, 0.0, 0.0, 0.0, 0.0, 1.7172367724422448E9, 0.0, 2024-06-01 03:12:52.442
175.0, -149608.29461911853, -149448.5690532409, -149635.85432003194, -149607.98169469615, -149675.37220422892, -149606.08179641745, -149691.75603291465, -159272.76423844867, -0.024, -0.068, 0.984, 192.0, 255.0, 64.0, 253.0, 224.0, 30.0, 192.0, 0.0, 0.0, 0.0, 1.7172367724422543E9, 0.0, 2024-06-01 03:12:52.442
176.0, -149606.68529351774, -149446.6244514733, -149634.24499443115, -149606.28296211755, -149673.89698909485, -149604.2713051166, -149690.50433522515, -159271.17726459232, -0.024, -0.068, 0.984, 192.0, 0.0, 0.0, 0.0, 0.0, 0.0, 0.0, 0.0, 0.0, 0.0, 1.7172367724422643E9, 0.0, 2024-06-01 03:12:52.442
177.0, -149607.08762491794, -149446.75856194002, -149634.55791885353, -149606.55118305102, -149674.1875617728, -149604.38306383885, -149691.28664628108, -159271.4007820369, -0.024, -0.068, 0.984, 192.0, 0.0, 0.0, 0.0, 0.0, 0.0, 0.0, 0.0, 0.0, 0.0, 1.717236772442274E9, 0.0, 2024-06-01 03:12:52.442
178.0, -149608.89811621883, -149448.3678875408, -149636.30135492104, -149608.20521214072, -149676.02040481812, -149606.10414816192, -149693.45476549325, -159273.01010763767, -0.024, -0.068, 0.984, 192.0, 0.0, 0.0, 0.0, 0.0, 0.0, 0.0, 0.0, 0.0, 0.0, 1.717236772442284E9, 0.0, 2024-06-01 03:12:52.442
179.0, -149608.9651714522, -149448.09966660736, -149636.32370666548, -149608.02639818506, -149676.10981179593, -149605.7241685062, -149693.67828293782, -159272.87599717092, -0.024, -0.068, 0.984, 192.0, 0.0, 0.0, 0.0, 0.0, 0.0, 0.0, 0.0, 0.0, 0.0, 1.7172367724422936E9, 0.0, 2024-06-01 03:12:52.442
180.0, -149608.20521214072, -149446.95972764012, -149635.5190438651, -149607.0652731735, -149675.26044550663, -149604.6065812834, -149693.05243409306, -159272.02663088162, -0.024, -0.068, 0.984, 192.0, 0.0, 0.0, 0.0, 0.0, 0.0, 0.0, 0.0, 0.0, 0.0, 1.7172367724423034E9, 0.0, 2024-06-01 03:12:52.442
181.0, -149607.04292142903, -149445.4621607616, -149634.2673461756, -149605.63476152834, -149674.0758030505, -149603.17606963828, -149692.20306780376, -159270.6408227254, -0.024, -0.068, 0.984, 192.0, 0.0, 0.0, 0.0, 0.0, 0.0, 0.0, 0.0, 0.0, 0.0, 1.7172367724423132E9, 0.0, 2024-06-01 03:12:52.442
182.0, -149606.7076452622, -149444.9257188947, -149633.84266303096, -149605.18772663924, -149673.76287862813, -149602.6172760269, -149692.15836431485, -159270.12673260292, -0.024, -0.068, 0.984, 192.0, 0.0, 0.0, 0.0, 0.0, 0.0, 0.0, 0.0, 0.0, 0.0, 1.7172367724423227E9, 0.0, 2024-06-01 03:12:52.442
183.0, -149607.93699120724, -149445.84214041737, -149634.96025025373, -149606.19355513973, -149674.76870712862, -149603.48899406064, -149693.61122770444, -159271.11020935897, -0.024, -0.068, 0.984, 192.0, 0.0, 0.0, 0.0, 0.0, 0.0, 0.0, 0.0, 0.0, 0.0, 1.7172367724423325E9, 0.0, 2024-06-01 03:12:52.442
184.0, -149605.14302315033, -149442.9140618937, -149632.23333743017, -149603.4219388273, -149672.01944256062, -149600.42680507028, -149691.21959104773, -159268.2938895576, -0.024, -0.068, 0.984, 192.0, 0.0, 0.0, 0.0, 0.0, 0.0, 0.0, 0.0, 0.0, 0.0, 1.7172367724423423E9, 0.0, 2024-06-01 03:12:52.442
185.0, -149606.79705224003, -149444.34457353887, -149633.95442175324, -149605.0089126836, -149673.7852303726, -149601.90202020432, -149693.25359979316, -159270.01497388066, -0.012, -0.074, 0.988, 192.0, 255.0, 160.0, 253.0, 176.0, 30.0, 224.0, 0.0, 0.0, 0.0, 1.7172367724423523E9, 0.0, 2024-06-01 03:12:52.442
186.0, -149608.62989528535, -149445.8644921618, -149635.63080258737, -149606.4617760732, -149675.46161120673, -149603.53369754954, -149695.35466377196, -159271.62429948145, -0.012, -0.074, 0.988, 192.0, 0.0, 0.0, 0.0, 0.0, 0.0, 0.0, 0.0, 0.0, 0.0, 1.717236772442362E9, 0.0, 2024-06-01 03:12:52.442
187.0, -149608.02639818506, -149444.9257188947, -149634.89319502036, -149605.6124097839, -149674.81341061753, -149602.59492428243, -149695.01938760513, -159270.73022970321, -0.012, -0.074, 0.988, 192.0, 0.0, 0.0, 0.0, 0.0, 0.0, 0.0, 0.0, 0.0, 0.0, 1.717236772442372E9, 0.0, 2024-06-01 03:12:52.442
188.0, -149606.7076452622, -149443.271689805, -149633.57444209748, -149604.1595463943, -149673.51700943912, -149600.98559868164, -149693.96885561573, -159269.25501456918, -0.012, -0.074, 0.988, 192.0, 0.0, 0.0, 0.0, 0.0, 0.0, 0.0, 0.0, 0.0, 0.0, 1.7172367724423816E9, 0.0, 2024-06-01 03:12:52.442
189.0, -149608.316970863, -149444.59044272787, -149635.1167124649, -149605.63476152834, -149675.14868678435, -149602.39375858233, -149695.91345738334, -159270.77493319215, -0.012, -0.074, 0.988, 192.0, 0.0, 0.0, 0.0, 0.0, 0.0, 0.0, 0.0, 0.0, 0.0, 1.7172367724423916E9, 0.0, 2024-06-01 03:12:52.442
190.0, -149608.54048830754, -149444.5233874945, -149635.29552642055, -149605.74652025063, -149675.46161120673, -149602.4608138157, -149696.49460273917, -159270.9984506367, -0.012, -0.074, 0.988, 192.0, 0.0, 0.0, 0.0, 0.0, 0.0, 0.0, 0.0, 0.0, 0.0, 1.7172367724424012E9, 0.0, 2024-06-01 03:12:52.442
191.0, -149608.69695051873, -149444.4116287722, -149635.40728514284, -149605.70181676172, -149675.4839629512, -149602.34905509342, -149696.89693413937, -159270.90904365887, -0.012, -0.074, 0.988, 192.0, 0.0, 0.0, 0.0, 0.0, 0.0, 0.0, 0.0, 0.0, 0.0, 1.7172367724424105E9, 0.0, 2024-06-01 03:12:52.442
192.0, -149608.87576447436, -149444.3222217944, -149635.47434037618, -149605.813575484, -149675.59572167345, -149602.1702411378, -149697.34396902847, -159271.0431541256, -0.012, -0.074, 0.988, 192.0, 0.0, 0.0, 0.0, 0.0, 0.0, 0.0, 0.0, 0.0, 0.0, 1.7172367724424183E9, 0.0, 2024-06-01 03:12:52.442
193.0, -149608.29461911853, -149443.5622624829, -149635.04965723155, -149605.18772663924, -149675.26044550663, -149601.34322659293, -149697.16515507284, -159270.52906400312, -0.012, -0.074, 0.988, 192.0, 0.0, 0.0, 0.0, 0.0, 0.0, 0.0, 0.0, 0.0, 0.0, 1.7172367724424264E9, 0.0, 2024-06-01 03:12:52.442
194.0, -149609.72513076366, -149444.6798497057, -149636.3684101544, -149606.4170725843, -149676.5791984295, -149602.59492428243, -149698.95329462926, -159271.87016867046, -0.012, -0.074, 0.988, 192.0, 0.0, 0.0, 0.0, 0.0, 0.0, 0.0, 0.0, 0.0, 0.0, 1.7172367724424343E9, 0.0, 2024-06-01 03:12:52.442
195.0, -149612.34028486494, -149446.93737589568, -149638.73769506667, -149608.7193022632, -149678.99318683066, -149604.9195057058, -149701.6355039639, -159274.26180532717, -0.024, -0.074, 0.97, 192.0, 255.0, 64.0, 253.0, 176.0, 30.0, 80.0, 0.0, 0.0, 0.0, 1.7172367724424424E9, 0.0, 2024-06-01 03:12:52.442
196.0, -149612.38498835385, -149446.69150670667, -149638.7153433222, -149608.5181365631, -149679.01553857513, -149604.62893302785, -149701.92607664183, -159274.12769486042, -0.024, -0.074, 0.97, 192.0, 0.0, 0.0, 0.0, 0.0, 0.0, 0.0, 0.0, 0.0, 0.0, 1.71723677244245E9, 0.0, 2024-06-01 03:12:52.442
197.0, -149613.74844476563, -149447.8761491628, -149640.05644798954, -149609.79218599704, -149680.44605022026, -149605.813575484, -149703.62480922043, -159275.5358547611, -0.024, -0.074, 0.97, 192.0, 0.0, 0.0, 0.0, 0.0, 0.0, 0.0, 0.0, 0.0, 0.0, 1.717236772442458E9, 0.0, 2024-06-01 03:12:52.442
198.0, -149614.59781105493, -149448.50199800756, -149640.95051776775, -149610.57449705296, -149681.49658220966, -149606.52883130655, -149704.96591388775, -159276.27346232813, -0.024, -0.074, 0.97, 192.0, 0.0, 0.0, 0.0, 0.0, 0.0, 0.0, 0.0, 0.0, 0.0, 1.7172367724424658E9, 0.0, 2024-06-01 03:12:52.442
199.0, -149615.80480525552, -149449.3737160413, -149642.04575324606, -149611.49091857564, -149682.56946594352, -149607.5123080626, -149706.39642553288, -159277.2345873397, -0.024, -0.074, 0.97, 192.0, 0.0, 0.0, 0.0, 0.0, 0.0, 0.0, 0.0, 0.0, 0.0, 1.7172367724424736E9, 0.0, 2024-06-01 03:12:52.442
200.0, -149615.29071513304, -149448.524349752, -149641.48695963467, -149610.77566275306, -149681.94361709876, -149606.5735347955, -149706.0835011105, -159276.4969797727, -0.024, -0.074, 0.97, 192.0, 0.0, 0.0, 0.0, 0.0, 0.0, 0.0, 0.0, 0.0, 0.0, 1.7172367724424815E9, 0.0, 2024-06-01 03:12:52.442
201.0, -149613.27905813206, -149446.35623053982, -149639.47530263368, -149608.7640057521, -149680.06607056453, -149604.3607120944, -149704.47417550973, -159274.4406192828, -0.024, -0.074, 0.97, 192.0, 0.0, 0.0, 0.0, 0.0, 0.0, 0.0, 0.0, 0.0, 0.0, 1.7172367724424894E9, 0.0, 2024-06-01 03:12:52.442
202.0, -149615.62599129986, -149448.50199800756, -149641.8669392904, -149611.066235431, -149682.50241071015, -149606.5735347955, -149707.22344007774, -159276.7875524506, -0.024, -0.074, 0.97, 192.0, 0.0, 0.0, 0.0, 0.0, 0.0, 0.0, 0.0, 0.0, 0.0, 1.7172367724424973E9, 0.0, 2024-06-01 03:12:52.442
203.0, -149616.43065410026, -149448.9713846411, -149642.4257329018, -149611.58032555346, -149683.19531478826, -149607.04292142903, -149708.20691683376, -159277.3016425731, -0.024, -0.074, 0.97, 192.0, 0.0, 0.0, 0.0, 0.0, 0.0, 0.0, 0.0, 0.0, 0.0, 1.7172367724425051E9, 0.0, 2024-06-01 03:12:52.442
204.0, -149615.93891572225, -149448.21142532962, -149641.88929103487, -149610.73095926415, -149682.59181768796, -149606.2159068842, -149707.87164066694, -159276.63109023942, -0.024, -0.074, 0.97, 192.0, 0.0, 0.0, 0.0, 0.0, 0.0, 0.0, 0.0, 0.0, 0.0, 1.717236772442513E9, 0.0, 2024-06-01 03:12:52.442
205.0, -149614.84368024394, -149446.9150241512, -149640.816407301, -149609.5686685525, -149681.56363744303, -149604.9642091947, -149707.15638484436, -159275.6029099945, -0.022, -0.066, 0.974, 192.0, 255.0, 80.0, 253.0, 240.0, 30.0, 112.0, 0.0, 0.0, 0.0, 1.7172367724425209E9, 0.0, 2024-06-01 03:12:52.442
206.0, -149614.64251454384, -149446.35623053982, -149640.43642764527, -149609.14398540783, -149681.2283612762, -149604.40541558331, -149707.15638484436, -159275.11117161647, -0.022, -0.066, 0.974, 192.0, 0.0, 0.0, 0.0, 0.0, 0.0, 0.0, 0.0, 0.0, 0.0, 1.7172367724425285E9, 0.0, 2024-06-01 03:12:52.442
207.0, -149614.28488663255, -149445.64097471727, -149639.98939275616, -149608.65224702982, -149680.89308510936, -149603.7125115052, -149707.06697786655, -159274.4853227717, -0.022, -0.066, 0.974, 192.0, 0.0, 0.0, 0.0, 0.0, 0.0, 0.0, 0.0, 0.0, 0.0, 1.7172367724425366E9, 0.0, 2024-06-01 03:12:52.442
208.0, -149612.38498835385, -149443.45050376066, -149637.97773575518, -149606.52883130655, -149678.94848334175, -149601.4549853152, -149705.41294877685, -159272.36190704847, -0.022, -0.066, 0.974, 192.0, 0.0, 0.0, 0.0, 0.0, 0.0, 0.0, 0.0, 0.0, 0.0, 1.7172367724425445E9, 0.0, 2024-06-01 03:12:52.442
209.0, -149614.17312791027, -149445.03747761698, -149639.89998577835, -149608.29461911853, -149680.89308510936, -149603.04195917153, -149707.5363645001, -159274.12769486042, -0.022, -0.066, 0.974, 192.0, 0.0, 0.0, 0.0, 0.0, 0.0, 0.0, 0.0, 0.0, 0.0, 1.7172367724425523E9, 0.0, 2024-06-01 03:12:52.442
210.0, -149616.3635988669, -149446.89267240677, -149641.97869801268, -149610.32862786396, -149683.083556066, -149604.89715396133, -149710.01740813465, -159276.27346232813, -0.022, -0.066, 0.974, 192.0, 0.0, 0.0, 0.0, 0.0, 0.0, 0.0, 0.0, 0.0, 0.0, 1.7172367724425602E9, 0.0, 2024-06-01 03:12:52.442
211.0, -149618.0176279566, -149448.18907358518, -149643.45391314675, -149611.78149125355, -149684.5811229445, -149606.35001735092, -149711.9396581578, -159277.68162222882, -0.022, -0.066, 0.974, 192.0, 0.0, 0.0, 0.0, 0.0, 0.0, 0.0, 0.0, 0.0, 0.0, 1.717236772442568E9, 0.0, 2024-06-01 03:12:52.442
212.0, -149617.6152965564, -149447.4738177626, -149643.073933491, -149611.08858717544, -149684.08938456647, -149605.70181676172, -149711.7831959466, -159276.9887181507, -0.022, -0.066, 0.974, 192.0, 0.0, 0.0, 0.0, 0.0, 0.0, 0.0, 0.0, 0.0, 0.0, 1.717236772442576E9, 0.0, 2024-06-01 03:12:52.442
213.0, -149615.33541862195, -149445.08218110588, -149640.88346253437, -149608.808709241, -149681.89891360985, -149603.15371789382, -149709.6821319678, -159274.6417849829, -0.022, -0.066, 0.974, 192.0, 0.0, 0.0, 0.0, 0.0, 0.0, 0.0, 0.0, 0.0, 0.0, 1.7172367724425836E9, 0.0, 2024-06-01 03:12:52.442
214.0, -149617.88351748986, -149447.4291142737, -149643.38685791337, -149611.1109389199, -149684.46936422223, -149605.34418885043, -149712.52080351365, -159277.100476873, -0.022, -0.066, 0.974, 192.0, 0.0, 0.0, 0.0, 0.0, 0.0, 0.0, 0.0, 0.0, 0.0, 1.7172367724425917E9, 0.0, 2024-06-01 03:12:52.442
215.0, -149619.42578785727, -149448.70316370766, -149644.8173695585, -149612.49674707613, -149685.98928284517, -149606.8194039845, -149714.51010877016, -159278.5980437515, -0.024, -0.07, 0.978, 192.0, 255.0, 64.0, 253.0, 208.0, 30.0, 144.0, 0.0, 0.0, 0.0, 1.7172367724425995E9, 0.0, 2024-06-01 03:12:52.442
216.0, -149619.35873262392, -149448.45729451862, -149644.75031432515, -149612.3626366094, -149685.96693110073, -149606.6182382844, -149714.80068144808, -159278.3968780514, -0.024, -0.07, 0.978, 192.0, 0.0, 0.0, 0.0, 0.0, 0.0, 0.0, 0.0, 0.0, 0.0, 1.7172367724426074E9, 0.0, 2024-06-01 03:12:52.442
217.0, -149618.84464250144, -149447.54087299597, -149644.10211373595, -149611.6697325313, -149685.31873051153, -149605.59005803944, -149714.42070179235, -159277.65927048438, -0.024, -0.07, 0.978, 192.0, 0.0, 0.0, 0.0, 0.0, 0.0, 0.0, 0.0, 0.0, 0.0, 1.7172367724426153E9, 0.0, 2024-06-01 03:12:52.442
218.0, -149621.23627915815, -149449.55252999696, -149646.3596399259, -149613.7707965101, -149687.64331193487, -149607.6240667849, -149716.9911524047, -159279.9391484188, -0.024, -0.07, 0.978, 192.0, 0.0, 0.0, 0.0, 0.0, 0.0, 0.0, 0.0, 0.0, 0.0, 1.7172367724426231E9, 0.0, 2024-06-01 03:12:52.442
219.0, -149621.88447974736, -149450.0666201194, -149647.03019225958, -149614.39664535483, -149688.42562299082, -149608.24991562963, -149718.15344311637, -159280.5426455191, -0.024, -0.07, 0.978, 192.0, 0.0, 0.0, 0.0, 0.0, 0.0, 0.0, 0.0, 0.0, 0.0, 1.7172367724426312E9, 0.0, 2024-06-01 03:12:52.442
220.0, -149622.84560475894, -149450.6701172197, -149647.85720680442, -149615.00014245513, -149689.25263753565, -149608.89811621883, -149719.3380855725, -159281.23554959722, -0.024, -0.07, 0.978, 192.0, 0.0, 0.0, 0.0, 0.0, 0.0, 0.0, 0.0, 0.0, 0.0, 1.7172367724426389E9, 0.0, 2024-06-01 03:12:52.442
221.0, -149622.73384603666, -149450.2677858195, -149647.79015157107, -149614.73192152166, -149689.14087881337, -149608.4734330742, -149719.3827890614, -159280.96732866377, -0.024, -0.07, 0.978, 192.0, 0.0, 0.0, 0.0, 0.0, 0.0, 0.0, 0.0, 0.0, 0.0, 1.7172367724426467E9, 0.0, 2024-06-01 03:12:52.442
222.0, -149622.89030824785, -149450.1783788417, -149647.87955854888, -149614.77662501056, -149689.29734102456, -149608.3616743519, -149719.85217569498, -159280.9896804082, -0.024, -0.07, 0.978, 192.0, 0.0, 0.0, 0.0, 0.0, 0.0, 0.0, 0.0, 0.0, 0.0, 1.7172367724426544E9, 0.0, 2024-06-01 03:12:52.442
223.0, -149624.23141291516, -149451.1171521088, -149649.064201005, -149615.84950874443, -149690.61609394744, -149609.3675028524, -149721.50620478467, -159282.1966746088, -0.024, -0.07, 0.978, 192.0, 0.0, 0.0, 0.0, 0.0, 0.0, 0.0, 0.0, 0.0, 0.0, 1.7172367724426625E9, 0.0, 2024-06-01 03:12:52.442
224.0, -149627.36065713892, -149454.00052714357, -149652.2157969732, -149618.8669942459, -149693.76768991564, -149612.29558137603, -149724.97072517523, -159285.21416011028, -0.024, -0.07, 0.978, 192.0, 0.0, 0.0, 0.0, 0.0, 0.0, 0.0, 0.0, 0.0, 0.0, 1.71723677244267E9, 0.0, 2024-06-01 03:12:52.442
225.0, -149627.09243620545, -149453.50878876552, -149651.8805208064, -149618.4199593568, -149693.36535851544, -149611.64738078683, -149724.81426296406, -159284.81182871008, -0.024, -0.07, 0.976, 192.0, 255.0, 64.0, 253.0, 208.0, 30.0, 128.0, 0.0, 0.0, 0.0, 1.717236772442678E9, 0.0, 2024-06-01 03:12:52.442
226.0, -149625.30429664903, -149451.40772478672, -149650.00297427215, -149616.43065410026, -149691.48781198118, -149609.59102029694, -149723.2943443411, -159282.844875198, -0.024, -0.07, 0.976, 192.0, 0.0, 0.0, 0.0, 0.0, 0.0, 0.0, 0.0, 0.0, 0.0, 1.717236772442686E9, 0.0, 2024-06-01 03:12:52.442
227.0, -149626.95832573873, -149452.74882945407, -149651.63465161738, -149617.86116574542, -149693.14184107087, -149611.04388368654, -149725.26129785317, -159284.4542007988, -0.024, -0.07, 0.976, 192.0, 0.0, 0.0, 0.0, 0.0, 0.0, 0.0, 0.0, 0.0, 0.0, 1.717236772442694E9, 0.0, 2024-06-01 03:12:52.442
228.0, -149626.06425596052, -149451.6759457202, -149650.7182300947, -149616.87768898936, -149692.29247478157, -149609.94864820823, -149724.70250424178, -159283.47072404274, -0.024, -0.07, 0.976, 192.0, 0.0, 0.0, 0.0, 0.0, 0.0, 0.0, 0.0, 0.0, 0.0, 1.7172367724427018E9, 0.0, 2024-06-01 03:12:52.442
229.0, -149624.45493035973, -149449.8207509304, -149649.0194975161, -149615.1119011774, -149690.72785266972, -149608.04874992953, -149723.31669608556, -159281.7496397197, -0.024, -0.07, 0.976, 192.0, 0.0, 0.0, 0.0, 0.0, 0.0, 0.0, 0.0, 0.0, 0.0, 1.7172367724427097E9, 0.0, 2024-06-01 03:12:52.442
230.0, -149624.25376465963, -149449.39606778577, -149648.88538704938, -149614.8660319884, -149690.61609394744, -149607.60171504042, -149723.4284548078, -159281.52612227513, -0.024, -0.07, 0.976, 192.0, 0.0, 0.0, 0.0, 0.0, 0.0, 0.0, 0.0, 0.0, 0.0, 1.7172367724427176E9, 0.0, 2024-06-01 03:12:52.442
231.0, -149625.17018618228, -149449.99956488606, -149649.7124015942, -149615.62599129986, -149691.44310849227, -149608.2722673741, -149724.65780075287, -159282.37548856443, -0.024, -0.07, 0.976, 192.0, 0.0, 0.0, 0.0, 0.0, 0.0, 0.0, 0.0, 0.0, 0.0, 1.7172367724427257E9, 0.0, 2024-06-01 03:12:52.442
232.0, -149627.42771237227, -149451.94416665367, -149651.70170685076, -149617.59294481194, -149693.47711723772, -149610.19451739723, -149727.16119613187, -159284.3424420765, -0.024, -0.07, 0.976, 192.0, 0.0, 0.0, 0.0, 0.0, 0.0, 0.0, 0.0, 0.0, 0.0, 1.7172367724427335E9, 0.0, 2024-06-01 03:12:52.442
233.0, -149628.32178215048, -149452.5253120095, -149652.50636965112, -149618.4199593568, -149694.41589050484, -149610.77566275306, -149728.27878335462, -159285.12475313243, -0.024, -0.07, 0.976, 192.0, 0.0, 0.0, 0.0, 0.0, 0.0, 0.0, 0.0, 0.0, 0.0, 1.7172367724427412E9, 0.0, 2024-06-01 03:12:52.442
234.0, -149625.93014549377, -149449.75369569703, -149650.1594364833, -149615.80480525552, -149692.06895733703, -149608.13815690734, -149726.11066414247, -159282.57665426453, -0.024, -0.07, 0.976, 192.0, 0.0, 0.0, 0.0, 0.0, 0.0, 0.0, 0.0, 0.0, 0.0, 1.7172367724427493E9, 0.0, 2024-06-01 03:12:52.442
235.0, -149626.06425596052, -149449.64193697477, -149650.3158986945, -149615.76010176662, -149692.24777129266, -149607.98169469615, -149726.71416124277, -159282.71076473128, -0.024, -0.068, 0.982, 192.0, 255.0, 64.0, 253.0, 224.0, 30.0, 176.0, 0.0, 0.0, 0.0, 1.717236772442757E9, 0.0, 2024-06-01 03:12:52.442
236.0, -149626.84656701644, -149450.2677858195, -149651.075858006, -149616.29654363354, -149693.07478583753, -149608.58519179645, -149727.76469323217, -159283.2025031093, -0.024, -0.068, 0.982, 192.0, 0.0, 0.0, 0.0, 0.0, 0.0, 0.0, 0.0, 0.0, 0.0, 1.7172367724427648E9, 0.0, 2024-06-01 03:12:52.442
237.0, -149625.41605537132, -149448.59140498537, -149649.53358763858, -149614.70956977722, -149691.59957070346, -149606.88645921784, -149726.55769903157, -159281.5931775085, -0.024, -0.068, 0.982, 192.0, 0.0, 0.0, 0.0, 0.0, 0.0, 0.0, 0.0, 0.0, 0.0, 1.7172367724427726E9, 0.0, 2024-06-01 03:12:52.442
238.0, -149622.84560475894, -149445.7303816951, -149646.89608179286, -149612.04971218703, -149688.93971311327, -149603.93602894974, -149724.2331176082, -159278.91096817388, -0.024, -0.068, 0.982, 192.0, 0.0, 0.0, 0.0, 0.0, 0.0, 0.0, 0.0, 0.0, 0.0, 1.7172367724427805E9, 0.0, 2024-06-01 03:12:52.442
239.0, -149622.82325301447, -149445.4621607616, -149646.85137830395, -149611.8708982314, -149688.93971311327, -149603.6231045274, -149724.5907455195, -159278.8886164294, -0.024, -0.068, 0.982, 192.0, 0.0, 0.0, 0.0, 0.0, 0.0, 0.0, 0.0, 0.0, 0.0, 1.7172367724427881E9, 0.0, 2024-06-01 03:12:52.442
240.0, -149624.18670942626, -149446.60209972886, -149648.28188994908, -149613.10024417643, -149690.28081778061, -149604.9195057058, -149726.2447746092, -159280.1403141189, -0.024, -0.068, 0.982, 192.0, 0.0, 0.0, 0.0, 0.0, 0.0, 0.0, 0.0, 0.0, 0.0, 1.7172367729203126E9, 0.0, 2024-06-01 03:12:52.920
241.0, -149625.17018618228, -149447.2726520625, -149649.08655274948, -149613.94961046573, -149691.10783232545, -149605.567706295, -149727.40706532088, -159280.7885147081, -0.024, -0.068, 0.982, 192.0, 0.0, 0.0, 0.0, 0.0, 0.0, 0.0, 0.0, 0.0, 0.0, 1.7172367729203517E9, 0.0, 2024-06-01 03:12:52.920
242.0, -149625.17018618228, -149446.9820793846, -149648.9747940272, -149613.90490697682, -149691.17488755882, -149605.25478187262, -149727.7423414877, -159280.7885147081, -0.024, -0.068, 0.982, 192.0, 0.0, 0.0, 0.0, 0.0, 0.0, 0.0, 0.0, 0.0, 0.0, 1.7172367729203773E9, 0.0, 2024-06-01 03:12:52.920
243.0, -149625.43840711575, -149446.95972764012, -149649.2653667051, -149613.99431395464, -149691.51016372564, -149605.38889233934, -149728.41289382137, -159281.07908738602, -0.024, -0.068, 0.982, 192.0, 0.0, 0.0, 0.0, 0.0, 0.0, 0.0, 0.0, 0.0, 0.0, 1.7172367729204023E9, 0.0, 2024-06-01 03:12:52.920
244.0, -149626.06425596052, -149447.4291142737, -149649.8688638054, -149614.35194186593, -149692.18071605932, -149605.7688719951, -149729.32931534402, -159281.57082576404, -0.024, -0.068, 0.982, 192.0, 0.0, 0.0, 0.0, 0.0, 0.0, 0.0, 0.0, 0.0, 0.0, 1.7172367729204237E9, 0.0, 2024-06-01 03:12:52.920
245.0, -149626.01955247158, -149447.0267828735, -149649.7124015942, -149614.0166656991, -149692.09130908147, -149605.43359582825, -149729.53048104412, -159281.16849436387, -0.026000000000000002, -0.074, 0.98, 192.0, 255.0, 48.0, 253.0, 176.0, 30.0, 160.0, 0.0, 0.0, 0.0, 1.7172367729204452E9, 0.0, 2024-06-01 03:12:52.920
246.0, -149625.63957281585, -149446.35623053982, -149649.1089044939, -149613.3684651099, -149691.62192244793, -149604.69598826123, -149729.3516670885, -159280.63205249692, -0.026000000000000002, -0.074, 0.98, 192.0, 0.0, 0.0, 0.0, 0.0, 0.0, 0.0, 0.0, 0.0, 0.0, 1.7172367729204667E9, 0.0, 2024-06-01 03:12:52.920
247.0, -149626.69010480525, -149447.2726520625, -149650.24884346116, -149614.4637005882, -149692.78421315958, -149605.63476152834, -149730.8939374559, -159281.86139844198, -0.026000000000000002, -0.074, 0.98, 192.0, 0.0, 0.0, 0.0, 0.0, 0.0, 0.0, 0.0, 0.0, 0.0, 1.7172367729204884E9, 0.0, 2024-06-01 03:12:52.920
248.0, -149626.84656701644, -149447.20559682912, -149650.3606021834, -149614.53075582156, -149692.96302711524, -149605.5230028061, -149731.3856758339, -159281.8390466975, -0.026000000000000002, -0.074, 0.98, 192.0, 0.0, 0.0, 0.0, 0.0, 0.0, 0.0, 0.0, 0.0, 0.0, 1.71723677292051E9, 0.0, 2024-06-01 03:12:52.920
249.0, -149628.09826470594, -149448.05496311843, -149651.50054115066, -149615.5142325776, -149694.08061433802, -149606.50647956211, -149732.72678050122, -159282.71076473128, -0.026000000000000002, -0.074, 0.98, 192.0, 0.0, 0.0, 0.0, 0.0, 0.0, 0.0, 0.0, 0.0, 0.0, 1.7172367729205313E9, 0.0, 2024-06-01 03:12:52.920
250.0, -149627.45006411674, -149447.0714863624, -149650.7629335836, -149614.6648662883, -149693.29830328206, -149605.54535455053, -149732.27974561212, -159281.86139844198, -0.026000000000000002, -0.074, 0.98, 192.0, 0.0, 0.0, 0.0, 0.0, 0.0, 0.0, 0.0, 0.0, 0.0, 1.7172367729205527E9, 0.0, 2024-06-01 03:12:52.920
251.0, -149626.91362224982, -149446.4232857732, -149650.24884346116, -149614.12842442136, -149692.87362013743, -149604.85245047242, -149732.16798688984, -159281.45906704178, -0.026000000000000002, -0.074, 0.98, 192.0, 0.0, 0.0, 0.0, 0.0, 0.0, 0.0, 0.0, 0.0, 0.0, 1.71723677292057E9, 0.0, 2024-06-01 03:12:52.920
252.0, -149627.02538097207, -149446.24447181757, -149650.33825043897, -149613.99431395464, -149693.03008234862, -149604.7630434946, -149732.5926700345, -159281.57082576404, -0.026000000000000002, -0.074, 0.98, 192.0, 0.0, 0.0, 0.0, 0.0, 0.0, 0.0, 0.0, 0.0, 0.0, 1.71723677292058E9, 0.0, 2024-06-01 03:12:52.920
253.0, -149628.52294785058, -149447.49616950707, -149651.58994812847, -149615.1119011774, -149694.34883527146, -149605.8582789729, -149734.2019956353, -159282.6884129868, -0.026000000000000002, -0.074, 0.98, 192.0, 0.0, 0.0, 0.0, 0.0, 0.0, 0.0, 0.0, 0.0, 0.0, 1.7172367729205894E9, 0.0, 2024-06-01 03:12:52.920
254.0, -149626.69010480525, -149445.35040203936, -149649.75710508312, -149613.30140987653, -149692.62775094842, -149603.84662197193, -149732.70442875678, -159280.6991077303, -0.026000000000000002, -0.074, 0.98, 192.0, 0.0, 0.0, 0.0, 0.0, 0.0, 0.0, 0.0, 0.0, 0.0, 1.7172367729205995E9, 0.0, 2024-06-01 03:12:52.920
255.0, -149626.28777340506, -149444.5680909834, -149649.2653667051, -149612.78731975405, -149692.29247478157, -149603.15371789382, -149732.70442875678, -159280.3861833079, -0.026000000000000002, -0.07200000000000001, 0.978, 192.0, 255.0, 48.0, 253.0, 192.0, 30.0, 144.0, 0.0, 0.0, 0.0, 1.7172367729206088E9, 0.0, 2024-06-01 03:12:52.920
0.0, -149626.73480829416, -149444.79160842797, -149649.64534636086, -149613.07789243196, -149692.85126839296, -149603.37723533838, -149733.5537950461, -159280.7885147081, -0.026000000000000002, -0.07200000000000001, 0.978, 192.0, 0.0, 0.0, 0.0, 0.0, 0.0, 0.0, 0.0, 0.0, 0.0, 1.7172367729206183E9, 0.0, 2024-06-01 03:12:52.920
1.0, -149628.3664856394, -149446.13271309528, -149651.00880277262, -149614.39664535483, -149694.19237306027, -149604.69598826123, -149735.31958285804, -159281.97315716423, -0.026000000000000002, -0.07200000000000001, 0.978, 192.0, 0.0, 0.0, 0.0, 0.0, 0.0, 0.0, 0.0, 0.0, 0.0, 1.717236772920628E9, 0.0, 2024-06-01 03:12:52.920
2.0, -149628.92527925078, -149446.4232857732, -149651.50054115066, -149614.6648662883, -149694.70646318275, -149604.94185745023, -149736.05719042508, -159282.35313682, -0.026000000000000002, -0.07200000000000001, 0.978, 192.0, 0.0, 0.0, 0.0, 0.0, 0.0, 0.0, 0.0, 0.0, 0.0, 1.7172367729206376E9, 0.0, 2024-06-01 03:12:52.920
3.0, -149629.81934902899, -149447.00443112905, -149652.4616661622, -149615.5142325776, -149695.62288470543, -149605.59005803944, -149737.2865363701, -159283.2472065982, -0.026000000000000002, -0.07200000000000001, 0.978, 192.0, 0.0, 0.0, 0.0, 0.0, 0.0, 0.0, 0.0, 0.0, 0.0, 1.717236772920647E9, 0.0, 2024-06-01 03:12:52.920
4.0, -149628.90292750634, -149445.75273343956, -149651.567596384, -149614.53075582156, -149694.81822190504, -149604.5171743056, -149736.86185322548, -159282.37548856443, -0.026000000000000002, -0.07200000000000001, 0.978, 192.0, 0.0, 0.0, 0.0, 0.0, 0.0, 0.0, 0.0, 0.0, 0.0, 1.7172367729206567E9, 0.0, 2024-06-01 03:12:52.920
5.0, -149630.44519787375, -149447.13854159578, -149653.10986675142, -149615.84950874443, -149696.33814052798, -149605.83592722844, -149738.6499927819, -159283.6942414873, -0.026000000000000002, -0.07200000000000001, 0.978, 192.0, 0.0, 0.0, 0.0, 0.0, 0.0, 0.0, 0.0, 0.0, 0.0, 1.7172367729206662E9, 0.0, 2024-06-01 03:12:52.920
6.0, -149630.40049438484, -149446.7138584511, -149652.8639975624, -149615.5142325776, -149696.09227133897, -149605.38889233934, -149738.67234452633, -159283.2025031093, -0.026000000000000002, -0.07200000000000001, 0.978, 192.0, 0.0, 0.0, 0.0, 0.0, 0.0, 0.0, 0.0, 0.0, 0.0, 1.7172367729206758E9, 0.0, 2024-06-01 03:12:52.920
7.0, -149632.7697792971, -149448.770218941, -149655.18857898578, -149617.79411051204, -149698.55096322906, -149607.5123080626, -149741.354553861, -159285.594139766, -0.026000000000000002, -0.07200000000000001, 0.978, 192.0, 0.0, 0.0, 0.0, 0.0, 0.0, 0.0, 0.0, 0.0, 0.0, 1.7172367729206853E9, 0.0, 2024-06-01 03:12:52.920
8.0, -149632.97094499719, -149448.99373638557, -149655.38974468588, -149618.08468318995, -149698.95329462926, -149607.6240667849, -149742.092161428, -159286.0411746551, -0.026000000000000002, -0.07200000000000001, 0.978, 192.0, 0.0, 0.0, 0.0, 0.0, 0.0, 0.0, 0.0, 0.0, 0.0, 1.7172367729206948E9, 0.0, 2024-06-01 03:12:52.920
9.0, -149632.88153801937, -149448.63610847428, -149655.1215237524, -149617.68235178976, -149698.72977718472, -149607.17703189576, -149742.18156840582, -159285.6388432549, -0.018000000000000002, -0.07200000000000001, 0.98, 192.0, 255.0, 112.0, 253.0, 192.0, 30.0, 160.0, 0.0, 0.0, 0.0, 1.7172367729207044E9, 0.0, 2024-06-01 03:12:52.920
10.0, -149632.61331708592, -149447.94320439617, -149654.80859933002, -149617.12355817837, -149698.32744578453, -149606.52883130655, -149742.0027544502, -159285.102401388, -0.018000000000000002, -0.07200000000000001, 0.98, 192.0, 0.0, 0.0, 0.0, 0.0, 0.0, 0.0, 0.0, 0.0, 0.0, 1.717236772920714E9, 0.0, 2024-06-01 03:12:52.920
11.0, -149630.80282578504, -149446.11036135082, -149653.15457024032, -149615.38012211086, -149696.80752716155, -149604.6736365168, -149740.7510567607, -159283.35896532048, -0.018000000000000002, -0.07200000000000001, 0.98, 192.0, 0.0, 0.0, 0.0, 0.0, 0.0, 0.0, 0.0, 0.0, 0.0, 1.7172367729207237E9, 0.0, 2024-06-01 03:12:52.920
12.0, -149631.22750892967, -149446.24447181757, -149653.5121981516, -149615.73775002215, -149697.32161728403, -149604.9642091947, -149741.60042305, -159283.96246242078, -0.018000000000000002, -0.07200000000000001, 0.98, 192.0, 0.0, 0.0, 0.0, 0.0, 0.0, 0.0, 0.0, 0.0, 0.0, 1.7172367729207327E9, 0.0, 2024-06-01 03:12:52.920
13.0, -149632.09922696344, -149446.6691549622, -149654.316860952, -149616.29654363354, -149698.0815765955, -149605.50065106162, -149742.71801027274, -159284.5883112655, -0.018000000000000002, -0.07200000000000001, 0.98, 192.0, 0.0, 0.0, 0.0, 0.0, 0.0, 0.0, 0.0, 0.0, 0.0, 1.7172367729207425E9, 0.0, 2024-06-01 03:12:52.920
14.0, -149632.41215138583, -149446.69150670667, -149654.45097141876, -149616.29654363354, -149698.17098357333, -149605.4112440838, -149743.1426934174, -159284.47655254323, -0.018000000000000002, -0.07200000000000001, 0.98, 192.0, 0.0, 0.0, 0.0, 0.0, 0.0, 0.0, 0.0, 0.0, 0.0, 1.717236772920752E9, 0.0, 2024-06-01 03:12:52.920
15.0, -149633.77560779758, -149447.7643904405, -149655.70266910823, -149617.50353783413, -149699.51208824065, -149606.50647956211, -149744.72966727373, -159285.7506019772, -0.018000000000000002, -0.07200000000000001, 0.98, 192.0, 0.0, 0.0, 0.0, 0.0, 0.0, 0.0, 0.0, 0.0, 0.0, 1.7172367729207616E9, 0.0, 2024-06-01 03:12:52.920
16.0, -149632.54626185255, -149446.31152705092, -149654.562730141, -149616.318895378, -149698.55096322906, -149605.09831966143, -149744.01441145115, -159284.5436077766, -0.018000000000000002, -0.07200000000000001, 0.98, 192.0, 0.0, 0.0, 0.0, 0.0, 0.0, 0.0, 0.0, 0.0, 0.0, 1.7172367729207711E9, 0.0, 2024-06-01 03:12:52.920
17.0, -149632.97094499719, -149446.4679892621, -149654.8756545634, -149616.5200610781, -149698.9309428848, -149605.29948536152, -149744.81907425154, -159284.856532199, -0.018000000000000002, -0.07200000000000001, 0.98, 192.0, 0.0, 0.0, 0.0, 0.0, 0.0, 0.0, 0.0, 0.0, 0.0, 1.717236772920781E9, 0.0, 2024-06-01 03:12:52.920
18.0, -149633.39562814185, -149446.69150670667, -149655.30033770806, -149616.74357852264, -149699.22151556273, -149605.5230028061, -149745.37786786293, -159285.03534615462, -0.018000000000000002, -0.07200000000000001, 0.98, 192.0, 0.0, 0.0, 0.0, 0.0, 0.0, 0.0, 0.0, 0.0, 0.0, 1.7172367729207904E9, 0.0, 2024-06-01 03:12:52.920
19.0, -149633.46268337523, -149446.55739623992, -149655.38974468588, -149616.69887503373, -149699.333274285, -149605.321837106, -149745.7578475187, -159284.92358743233, -0.02, -0.074, 0.98, 192.0, 255.0, 96.0, 253.0, 176.0, 30.0, 160.0, 0.0, 0.0, 0.0, 1.7172367729208E9, 0.0, 2024-06-01 03:12:52.920
20.0, -149634.55791885353, -149447.33970729588, -149656.39557318637, -149617.70470353423, -149700.49556499667, -149606.2606103731, -149747.16600741935, -159286.01882291064, -0.02, -0.074, 0.98, 192.0, 0.0, 0.0, 0.0, 0.0, 0.0, 0.0, 0.0, 0.0, 0.0, 1.7172367729208095E9, 0.0, 2024-06-01 03:12:52.920
21.0, -149636.18959619876, -149448.5690532409, -149657.9154918093, -149619.13521517935, -149702.06018710855, -149607.57936329595, -149749.11060918696, -159287.56109327808, -0.02, -0.074, 0.98, 192.0, 0.0, 0.0, 0.0, 0.0, 0.0, 0.0, 0.0, 0.0, 0.0, 1.7172367729208193E9, 0.0, 2024-06-01 03:12:52.920
22.0, -149635.87667177638, -149448.032611374, -149657.51316040911, -149618.62112505687, -149701.65785570836, -149606.9758661957, -149749.08825744252, -159286.9575961778, -0.02, -0.074, 0.98, 192.0, 0.0, 0.0, 0.0, 0.0, 0.0, 0.0, 0.0, 0.0, 0.0, 1.7172367729208286E9, 0.0, 2024-06-01 03:12:52.920
23.0, -149633.23916593066, -149445.1268845948, -149654.7638958411, -149615.7153982777, -149699.1321085849, -149604.1148429054, -149746.62956555243, -159284.1412763764, -0.02, -0.074, 0.98, 192.0, 0.0, 0.0, 0.0, 0.0, 0.0, 0.0, 0.0, 0.0, 0.0, 1.717236772920838E9, 0.0, 2024-06-01 03:12:52.920
24.0, -149631.65219207434, -149443.3163932939, -149653.24397721817, -149614.10607267692, -149697.65689345085, -149602.19259288223, -149745.42257135184, -159282.5543025201, -0.02, -0.074, 0.98, 192.0, 0.0, 0.0, 0.0, 0.0, 0.0, 0.0, 0.0, 0.0, 0.0, 1.7172367729208477E9, 0.0, 2024-06-01 03:12:52.920
25.0, -149631.24986067414, -149442.73524793808, -149652.84164581797, -149613.6143342989, -149697.29926553956, -149601.70085450422, -149745.37786786293, -159282.06256414208, -0.02, -0.074, 0.98, 192.0, 0.0, 0.0, 0.0, 0.0, 0.0, 0.0, 0.0, 0.0, 0.0, 1.7172367729208572E9, 0.0, 2024-06-01 03:12:52.920
26.0, -149631.38397114087, -149442.5787857269, -149652.7745905846, -149613.45787208772, -149697.32161728403, -149601.6561510153, -149745.7578475187, -159281.9061019309, -0.02, -0.074, 0.98, 192.0, 0.0, 0.0, 0.0, 0.0, 0.0, 0.0, 0.0, 0.0, 0.0, 1.7172367729208667E9, 0.0, 2024-06-01 03:12:52.920
27.0, -149633.39562814185, -149444.3222217944, -149654.69684060776, -149615.29071513304, -149699.35562602946, -149603.39958708282, -149748.06007719756, -159283.78364846512, -0.02, -0.074, 0.98, 192.0, 0.0, 0.0, 0.0, 0.0, 0.0, 0.0, 0.0, 0.0, 0.0, 1.7172367729208765E9, 0.0, 2024-06-01 03:12:52.920
28.0, -149633.79795954205, -149444.54573923897, -149655.14387549687, -149615.58128781096, -149699.75795742965, -149603.60075278292, -149748.66357429785, -159284.18597986532, -0.02, -0.074, 0.98, 192.0, 0.0, 0.0, 0.0, 0.0, 0.0, 0.0, 0.0, 0.0, 0.0, 1.717236772920886E9, 0.0, 2024-06-01 03:12:52.920
29.0, -149632.72507580818, -149443.2269863161, -149654.070991763, -149614.39664535483, -149698.77448067363, -149602.2596481156, -149747.9483184753, -159282.97898566473, -0.024, -0.076, 0.978, 192.0, 255.0, 64.0, 253.0, 160.0, 30.0, 144.0, 0.0, 0.0, 0.0, 1.7172367729208956E9, 0.0, 2024-06-01 03:12:52.920
30.0, -149632.45685487473, -149442.64584096026, -149653.73571559618, -149613.92725872126, -149698.46155625125, -149601.7232062487, -149747.9483184753, -159282.57665426453, -0.024, -0.076, 0.978, 192.0, 0.0, 0.0, 0.0, 0.0, 0.0, 0.0, 0.0, 0.0, 0.0, 1.717236772920905E9, 0.0, 2024-06-01 03:12:52.920
31.0, -149631.49572986315, -149441.39414327077, -149652.6628318623, -149612.78731975405, -149697.45572775076, -149600.5162120481, -149747.23306265273, -159281.36966006397, -0.024, -0.076, 0.978, 192.0, 0.0, 0.0, 0.0, 0.0, 0.0, 0.0, 0.0, 0.0, 0.0, 1.717236772920915E9, 0.0, 2024-06-01 03:12:52.920
32.0, -149630.78047404057, -149440.50007349256, -149651.90287255085, -149611.98265695365, -149696.82987890602, -149599.57743878098, -149746.8977864859, -159280.56499726357, -0.024, -0.076, 0.978, 192.0, 0.0, 0.0, 0.0, 0.0, 0.0, 0.0, 0.0, 0.0, 0.0, 1.7172367729209244E9, 0.0, 2024-06-01 03:12:52.920
33.0, -149634.7143810647, -149444.14340783877, -149655.83677957498, -149615.78245351106, -149700.7861376746, -149603.28782836054, -149751.23402491023, -159284.56595952107, -0.024, -0.076, 0.978, 192.0, 0.0, 0.0, 0.0, 0.0, 0.0, 0.0, 0.0, 0.0, 0.0, 1.717236772920934E9, 0.0, 2024-06-01 03:12:52.920
34.0, -149638.20125319975, -149447.25030031806, -149659.05543077653, -149618.91169773482, -149704.11654759845, -149606.39472083983, -149754.96676623425, -159287.8963694449, -0.024, -0.076, 0.978, 192.0, 0.0, 0.0, 0.0, 0.0, 0.0, 0.0, 0.0, 0.0, 0.0, 1.7172367729209435E9, 0.0, 2024-06-01 03:12:52.920
35.0, -149637.70951482173, -149446.6244514733, -149658.65309937633, -149618.30820063452, -149703.64716096487, -149605.67946501725, -149754.74324878972, -159287.2034653668, -0.024, -0.076, 0.978, 192.0, 0.0, 0.0, 0.0, 0.0, 0.0, 0.0, 0.0, 0.0, 0.0, 1.7172367729209528E9, 0.0, 2024-06-01 03:12:52.920
36.0, -149635.45198863174, -149444.00929737202, -149656.30616620852, -149615.89421223334, -149701.38963477488, -149603.15371789382, -149752.77629527764, -159284.81182871008, -0.024, -0.076, 0.978, 192.0, 0.0, 0.0, 0.0, 0.0, 0.0, 0.0, 0.0, 0.0, 0.0, 1.7172367729209623E9, 0.0, 2024-06-01 03:12:52.920
37.0, -149634.17793919778, -149442.44467526017, -149655.0321167746, -149614.50840407712, -149700.07088185204, -149601.6561510153, -149751.83752201052, -159283.42602055383, -0.024, -0.076, 0.978, 192.0, 0.0, 0.0, 0.0, 0.0, 0.0, 0.0, 0.0, 0.0, 0.0, 1.717236772920972E9, 0.0, 2024-06-01 03:12:52.920
38.0, -149634.49086362016, -149442.5787857269, -149655.3226894525, -149614.73192152166, -149700.47321325223, -149601.8126132265, -149752.5527778331, -159283.6495379984, -0.024, -0.076, 0.978, 192.0, 0.0, 0.0, 0.0, 0.0, 0.0, 0.0, 0.0, 0.0, 0.0, 1.7172367729209816E9, 0.0, 2024-06-01 03:12:52.920
39.0, -149635.67550607628, -149443.45050376066, -149656.328517953, -149615.60363955543, -149701.61315221945, -149602.68433126024, -149754.02799296714, -159284.61066300998, -0.024, -0.07200000000000001, 0.986, 192.0, 255.0, 64.0, 253.0, 192.0, 30.0, 208.0, 0.0, 0.0, 0.0, 1.7172367729209912E9, 0.0, 2024-06-01 03:12:52.920
40.0, -149635.98843049866, -149443.65166946076, -149656.64144237537, -149615.89421223334, -149702.03783536408, -149602.818441727, -149754.60913832297, -159284.92358743233, -0.024, -0.07200000000000001, 0.986, 192.0, 0.0, 0.0, 0.0, 0.0, 0.0, 0.0, 0.0, 0.0, 0.0, 1.7172367729210007E9, 0.0, 2024-06-01 03:12:52.921
41.0, -149636.9719072547, -149444.3669252833, -149657.60256738693, -149616.74357852264, -149703.06601560905, -149603.556049294, -149755.92789124584, -159285.81765721057, -0.024, -0.07200000000000001, 0.986, 192.0, 0.0, 0.0, 0.0, 0.0, 0.0, 0.0, 0.0, 0.0, 0.0, 1.7172367729210105E9, 0.0, 2024-06-01 03:12:52.921
42.0, -149637.35188691044, -149444.4116287722, -149657.9154918093, -149616.94474422274, -149703.40129177587, -149603.7125115052, -149756.64314706842, -159286.08587814402, -0.024, -0.07200000000000001, 0.986, 192.0, 0.0, 0.0, 0.0, 0.0, 0.0, 0.0, 0.0, 0.0, 0.0, 1.71723677292102E9, 0.0, 2024-06-01 03:12:52.921
43.0, -149636.6142793434, -149443.4281520162, -149657.04377377557, -149616.07302618897, -149702.70838769776, -149602.84079347143, -149756.17376043485, -159285.1918083658, -0.024, -0.07200000000000001, 0.986, 192.0, 0.0, 0.0, 0.0, 0.0, 0.0, 0.0, 0.0, 0.0, 0.0, 1.7172367729210296E9, 0.0, 2024-06-01 03:12:52.921
44.0, -149637.6201078439, -149444.25516656105, -149658.04960227606, -149616.9670959672, -149703.66951270934, -149603.556049294, -149757.47016161325, -159286.01882291064, -0.024, -0.07200000000000001, 0.986, 192.0, 0.0, 0.0, 0.0, 0.0, 0.0, 0.0, 0.0, 0.0, 0.0, 1.717236772921039E9, 0.0, 2024-06-01 03:12:52.921
45.0, -149637.93303226627, -149444.21046307212, -149658.25076797616, -149616.98944771165, -149703.96008538725, -149603.53369754954, -149757.98425173573, -159286.21998861074, -0.024, -0.07200000000000001, 0.986, 192.0, 0.0, 0.0, 0.0, 0.0, 0.0, 0.0, 0.0, 0.0, 0.0, 1.7172367729210498E9, 0.0, 2024-06-01 03:12:52.921
46.0, -149637.64245958836, -149443.74107643857, -149658.0719540205, -149616.58711631145, -149703.75891968716, -149603.1090144049, -149758.14071394692, -159285.9964711662, -0.024, -0.07200000000000001, 0.986, 192.0, 0.0, 0.0, 0.0, 0.0, 0.0, 0.0, 0.0, 0.0, 0.0, 1.7172367729210596E9, 0.0, 2024-06-01 03:12:52.921
47.0, -149636.92720376578, -149442.73524793808, -149657.31199470902, -149615.69304653324, -149703.11071909795, -149602.2596481156, -149757.73838254673, -159285.12475313243, -0.024, -0.07200000000000001, 0.986, 192.0, 0.0, 0.0, 0.0, 0.0, 0.0, 0.0, 0.0, 0.0, 0.0, 1.7172367729210694E9, 0.0, 2024-06-01 03:12:52.921
48.0, -149638.1118462219, -149443.80813167192, -149658.49663716517, -149616.78828201155, -149704.36241678745, -149603.24312487163, -149759.25830116967, -159286.17528512183, -0.024, -0.07200000000000001, 0.986, 192.0, 0.0, 0.0, 0.0, 0.0, 0.0, 0.0, 0.0, 0.0, 0.0, 1.717236772921081E9, 0.0, 2024-06-01 03:12:52.921
49.0, -149638.53652936657, -149444.03164911648, -149658.831913332, -149617.07885468946, -149704.80945167656, -149603.37723533838, -149759.92885350334, -159286.48820954422, -0.034, -0.07, 0.98, 192.0, 254.0, 240.0, 253.0, 208.0, 30.0, 160.0, 0.0, 0.0, 0.0, 1.7172367729210906E9, 0.0, 2024-06-01 03:12:52.921
50.0, -149639.27413693359, -149444.5233874945, -149659.4801139212, -149617.66000004532, -149705.61411447695, -149604.04778767203, -149761.02408898165, -159287.27052060014, -0.034, -0.07, 0.98, 192.0, 0.0, 0.0, 0.0, 0.0, 0.0, 0.0, 0.0, 0.0, 0.0, 1.7172367729211001E9, 0.0, 2024-06-01 03:12:52.921
51.0, -149641.68812533477, -149446.64680321777, -149661.93880581128, -149619.98458146866, -149708.07280636704, -149606.30531386202, -149763.97451924975, -159289.68450900132, -0.034, -0.07, 0.98, 192.0, 0.0, 0.0, 0.0, 0.0, 0.0, 0.0, 0.0, 0.0, 0.0, 1.71723677292111E9, 0.0, 2024-06-01 03:12:52.921
52.0, -149641.77753231258, -149446.49034100657, -149662.072916278, -149619.93987797975, -149708.16221334485, -149606.1264999064, -149764.26509192766, -159289.57275027904, -0.034, -0.07, 0.98, 192.0, 0.0, 0.0, 0.0, 0.0, 0.0, 0.0, 0.0, 0.0, 0.0, 1.7172367729211197E9, 0.0, 2024-06-01 03:12:52.921
53.0, -149641.06227649, -149445.6186229728, -149661.40236394433, -149618.97875296816, -149707.3799022889, -149605.1206714059, -149763.86276052747, -159288.83514271202, -0.034, -0.07, 0.98, 192.0, 0.0, 0.0, 0.0, 0.0, 0.0, 0.0, 0.0, 0.0, 0.0, 1.7172367729211292E9, 0.0, 2024-06-01 03:12:52.921
54.0, -149641.79988405705, -149446.1774165842, -149662.09526802247, -149619.58225006846, -149708.29632381158, -149605.7241685062, -149764.98034775024, -159289.57275027904, -0.034, -0.07, 0.98, 192.0, 0.0, 0.0, 0.0, 0.0, 0.0, 0.0, 0.0, 0.0, 0.0, 1.7172367729211388E9, 0.0, 2024-06-01 03:12:52.921
55.0, -149640.74935206765, -149444.8139601724, -149660.84357033297, -149618.2634971456, -149707.22344007774, -149604.40541558331, -149764.17568494985, -159288.27634910063, -0.034, -0.07, 0.98, 192.0, 0.0, 0.0, 0.0, 0.0, 0.0, 0.0, 0.0, 0.0, 0.0, 1.7172367729211483E9, 0.0, 2024-06-01 03:12:52.921
56.0, -149639.83293054497, -149443.6740212052, -149659.94950055477, -149617.25766864512, -149706.35172204397, -149603.310180105, -149763.63924308293, -159287.27052060014, -0.034, -0.07, 0.98, 192.0, 0.0, 0.0, 0.0, 0.0, 0.0, 0.0, 0.0, 0.0, 0.0, 1.717236772921158E9, 0.0, 2024-06-01 03:12:52.921
57.0, -149638.15654971084, -149441.88588164878, -149658.38487844288, -149615.58128781096, -149704.76474818765, -149601.54439229303, -149762.29813841562, -159285.61649151047, -0.034, -0.07, 0.98, 192.0, 0.0, 0.0, 0.0, 0.0, 0.0, 0.0, 0.0, 0.0, 0.0, 1.7172367729211674E9, 0.0, 2024-06-01 03:12:52.921
58.0, -149639.67646833378, -149443.20463457165, -149659.83774183248, -149617.01179945612, -149706.44112902178, -149602.84079347143, -149764.33214716104, -159287.27052060014, -0.034, -0.07, 0.98, 192.0, 0.0, 0.0, 0.0, 0.0, 0.0, 0.0, 0.0, 0.0, 0.0, 1.7172367729211771E9, 0.0, 2024-06-01 03:12:52.921
59.0, -149641.59871835695, -149444.74690493906, -149661.5811779, -149618.53171807906, -149708.2292685782, -149604.45011907222, -149766.43321113984, -159288.9469014343, -0.032, -0.07, 0.978, 192.0, 255.0, 0.0, 253.0, 208.0, 30.0, 144.0, 0.0, 0.0, 0.0, 1.7172367729211867E9, 0.0, 2024-06-01 03:12:52.921
60.0, -149641.84458754596, -149444.6798497057, -149661.8717505779, -149618.62112505687, -149708.45278602277, -149604.45011907222, -149766.83554254004, -159288.92454968984, -0.032, -0.07, 0.978, 192.0, 0.0, 0.0, 0.0, 0.0, 0.0, 0.0, 0.0, 0.0, 0.0, 1.7172367729211962E9, 0.0, 2024-06-01 03:12:52.921
61.0, -149642.0681049905, -149444.65749796122, -149662.05056453354, -149618.68818029025, -149708.60924823396, -149604.45011907222, -149767.39433615142, -159289.0586601566, -0.032, -0.07, 0.978, 192.0, 0.0, 0.0, 0.0, 0.0, 0.0, 0.0, 0.0, 0.0, 0.0, 1.7172367729212055E9, 0.0, 2024-06-01 03:12:52.921
62.0, -149641.10697997894, -149443.5622624829, -149661.15649475533, -149617.68235178976, -149707.87164066694, -149603.4219388273, -149766.94730126232, -159288.2987008451, -0.032, -0.07, 0.978, 192.0, 0.0, 0.0, 0.0, 0.0, 0.0, 0.0, 0.0, 0.0, 0.0, 1.7172367729212153E9, 0.0, 2024-06-01 03:12:52.921
63.0, -149641.8222358015, -149444.0763526054, -149661.80469534453, -149618.24114540115, -149708.5868964895, -149603.89132546083, -149768.02018499616, -159288.96925317874, -0.032, -0.07, 0.978, 192.0, 0.0, 0.0, 0.0, 0.0, 0.0, 0.0, 0.0, 0.0, 0.0, 1.7172367729212248E9, 0.0, 2024-06-01 03:12:52.921
64.0, -149643.073933491, -149445.08218110588, -149662.78817210058, -149619.15756692382, -149709.61507673445, -149604.6736365168, -149769.31658617457, -159289.7068607458, -0.032, -0.07, 0.978, 192.0, 0.0, 0.0, 0.0, 0.0, 0.0, 0.0, 0.0, 0.0, 0.0, 1.7172367729212344E9, 0.0, 2024-06-01 03:12:52.921
65.0, -149642.35867766844, -149444.14340783877, -149662.16232325582, -149618.37525586787, -149709.14569010088, -149603.9136772053, -149768.93660651884, -159288.9469014343, -0.032, -0.07, 0.978, 192.0, 0.0, 0.0, 0.0, 0.0, 0.0, 0.0, 0.0, 0.0, 0.0, 1.717236772921244E9, 0.0, 2024-06-01 03:12:52.921
66.0, -149643.09628523546, -149444.63514621678, -149663.01168954512, -149619.09051169045, -149710.01740813465, -149604.53952605004, -149770.21065595277, -159289.9527299348, -0.032, -0.07, 0.978, 192.0, 0.0, 0.0, 0.0, 0.0, 0.0, 0.0, 0.0, 0.0, 0.0, 1.7172367729212537E9, 0.0, 2024-06-01 03:12:52.921
67.0, -149646.314936437, -149447.58557648488, -149666.1856372578, -149622.04094195855, -149713.1913558473, -149607.40054934032, -149773.76458332117, -159292.9478636918, -0.032, -0.07, 0.978, 192.0, 0.0, 0.0, 0.0, 0.0, 0.0, 0.0, 0.0, 0.0, 0.0, 1.7172367729212632E9, 0.0, 2024-06-01 03:12:52.921
68.0, -149647.43252365978, -149448.3231840519, -149666.99030005818, -149622.82325301447, -149714.15248085887, -149608.13815690734, -149774.92687403286, -159293.6631195144, -0.026000000000000002, -0.07, 0.98, 192.0, 255.0, 48.0, 253.0, 208.0, 30.0, 160.0, 0.0, 0.0, 0.0, 1.7172367729212728E9, 0.0, 2024-06-01 03:12:52.921
69.0, -149648.14777948236, -149448.770218941, -149667.54909366954, -149623.27028790358, -149714.75597795917, -149608.62989528535, -149775.86564729997, -159294.28896835912, -0.026000000000000002, -0.07, 0.98, 192.0, 0.0, 0.0, 0.0, 0.0, 0.0, 0.0, 0.0, 0.0, 0.0, 1.7172367729212823E9, 0.0, 2024-06-01 03:12:52.921
70.0, -149647.74544808216, -149448.14437009627, -149667.21381750272, -149622.77854952557, -149714.46540528125, -149608.1158051629, -149775.93270253335, -159294.0430991701, -0.026000000000000002, -0.07, 0.98, 192.0, 0.0, 0.0, 0.0, 0.0, 0.0, 0.0, 0.0, 0.0, 0.0, 1.7172367729212918E9, 0.0, 2024-06-01 03:12:52.921
71.0, -149648.30424169355, -149448.50199800756, -149667.7726111141, -149623.22558441467, -149715.20301284827, -149608.58519179645, -149776.8044205671, -159294.6465962704, -0.026000000000000002, -0.07, 0.98, 192.0, 0.0, 0.0, 0.0, 0.0, 0.0, 0.0, 0.0, 0.0, 0.0, 1.7172367729213011E9, 0.0, 2024-06-01 03:12:52.921
72.0, -149647.43252365978, -149447.38441078478, -149666.74443086918, -149622.17505242527, -149714.15248085887, -149607.33349410695, -149776.13386823345, -159293.4619538143, -0.026000000000000002, -0.07, 0.98, 192.0, 0.0, 0.0, 0.0, 0.0, 0.0, 0.0, 0.0, 0.0, 0.0, 1.717236772921311E9, 0.0, 2024-06-01 03:12:52.921
73.0, -149645.55497712555, -149445.35040203936, -149664.86688433492, -149620.18574716875, -149712.40904479136, -149605.23243012815, -149774.5468943771, -159291.3608898355, -0.026000000000000002, -0.07, 0.98, 192.0, 0.0, 0.0, 0.0, 0.0, 0.0, 0.0, 0.0, 0.0, 0.0, 1.7172367729213202E9, 0.0, 2024-06-01 03:12:52.921
74.0, -149644.30327943605, -149443.85283516085, -149663.63753838988, -149618.82229075697, -149711.3361610575, -149603.8242702275, -149773.76458332117, -159290.17624737934, -0.026000000000000002, -0.07, 0.98, 192.0, 0.0, 0.0, 0.0, 0.0, 0.0, 0.0, 0.0, 0.0, 0.0, 1.7172367729213295E9, 0.0, 2024-06-01 03:12:52.921
75.0, -149643.49861663565, -149442.80230317145, -149662.8328755895, -149617.86116574542, -149710.576201746, -149602.95255219372, -149773.33990017654, -159289.5056950457, -0.026000000000000002, -0.07, 0.98, 192.0, 0.0, 0.0, 0.0, 0.0, 0.0, 0.0, 0.0, 0.0, 0.0, 1.7172367729213395E9, 0.0, 2024-06-01 03:12:52.921
76.0, -149642.85041604645, -149441.90823339322, -149662.1846750003, -149617.05650294502, -149709.90564941237, -149602.12553764888, -149772.87051354296, -159288.61162526748, -0.026000000000000002, -0.07, 0.98, 192.0, 0.0, 0.0, 0.0, 0.0, 0.0, 0.0, 0.0, 0.0, 0.0, 1.717236772921349E9, 0.0, 2024-06-01 03:12:52.921
77.0, -149643.05158174655, -149441.70706769315, -149662.1176197669, -149616.92239247827, -149709.95035290127, -149601.87966845985, -149773.18343796534, -159288.41045956739, -0.026000000000000002, -0.07, 0.98, 192.0, 0.0, 0.0, 0.0, 0.0, 0.0, 0.0, 0.0, 0.0, 0.0, 1.7172367729213583E9, 0.0, 2024-06-01 03:12:52.921
78.0, -149644.79501781406, -149443.24933806056, -149664.0175180456, -149618.55406982353, -149711.85025117997, -149603.60075278292, -149775.3962606664, -159290.28800610162, -0.026000000000000002, -0.07200000000000001, 0.98, 192.0, 255.0, 48.0, 253.0, 192.0, 30.0, 160.0, 0.0, 0.0, 0.0, 1.717236772921367E9, 0.0, 2024-06-01 03:12:52.921
79.0, -149646.7619713261, -149445.0151258725, -149666.0291750466, -149620.38691286885, -149714.01837039215, -149605.50065106162, -149777.9443595343, -159292.36671833595, -0.026000000000000002, -0.07200000000000001, 0.98, 192.0, 0.0, 0.0, 0.0, 0.0, 0.0, 0.0, 0.0, 0.0, 0.0, 1.7172367729213748E9, 0.0, 2024-06-01 03:12:52.921
80.0, -149646.7172678372, -149444.70220145016, -149665.8280093465, -149620.18574716875, -149713.9289634143, -149605.14302315033, -149778.01141476768, -159292.07614565804, -0.026000000000000002, -0.07200000000000001, 0.98, 192.0, 0.0, 0.0, 0.0, 0.0, 0.0, 0.0, 0.0, 0.0, 0.0, 1.7172367729213824E9, 0.0, 2024-06-01 03:12:52.921
81.0, -149647.2090062152, -149445.03747761698, -149666.3197477245, -149620.58807856895, -149714.3759983034, -149605.38889233934, -149778.65961535688, -159292.36671833595, -0.026000000000000002, -0.07200000000000001, 0.98, 192.0, 0.0, 0.0, 0.0, 0.0, 0.0, 0.0, 0.0, 0.0, 0.0, 1.71723677292139E9, 0.0, 2024-06-01 03:12:52.921
82.0, -149645.68908759227, -149443.40580027175, -149664.822180846, -149618.91169773482, -149712.94548665828, -149603.69015976074, -149777.4526211563, -159290.9585584353, -0.026000000000000002, -0.07200000000000001, 0.98, 192.0, 0.0, 0.0, 0.0, 0.0, 0.0, 0.0, 0.0, 0.0, 0.0, 1.7172367729213977E9, 0.0, 2024-06-01 03:12:52.921
83.0, -149647.0748957485, -149444.43398051668, -149666.09623027997, -149620.09634019094, -149714.42070179235, -149604.9195057058, -149779.24076071274, -159292.4561253138, -0.026000000000000002, -0.07200000000000001, 0.98, 192.0, 0.0, 0.0, 0.0, 0.0, 0.0, 0.0, 0.0, 0.0, 0.0, 1.7172367729214053E9, 0.0, 2024-06-01 03:12:52.921
84.0, -149650.1594364833, -149447.33970729588, -149669.20312275924, -149622.93501173676, -149717.54994601608, -149607.69112201824, -149782.61587412548, -159295.2947968596, -0.026000000000000002, -0.07200000000000001, 0.98, 192.0, 0.0, 0.0, 0.0, 0.0, 0.0, 0.0, 0.0, 0.0, 0.0, 1.7172367729214127E9, 0.0, 2024-06-01 03:12:52.921
85.0, -149652.4616661622, -149449.3737160413, -149671.4382972048, -149625.08077920447, -149719.85217569498, -149609.65807553031, -149785.02986252666, -159297.1499916494, -0.026000000000000002, -0.07200000000000001, 0.98, 192.0, 0.0, 0.0, 0.0, 0.0, 0.0, 0.0, 0.0, 0.0, 0.0, 1.7172367729214203E9, 0.0, 2024-06-01 03:12:52.921
86.0, -149650.60647137242, -149447.3173555514, -149669.69486113728, -149623.11382569242, -149718.06403613856, -149607.7134737627, -149783.5546473926, -159295.33950034852, -0.026000000000000002, -0.07200000000000001, 0.98, 192.0, 0.0, 0.0, 0.0, 0.0, 0.0, 0.0, 0.0, 0.0, 0.0, 1.717236772921428E9, 0.0, 2024-06-01 03:12:52.921
87.0, -149648.70657309372, -149445.23864331708, -149667.75025936964, -149621.14687218034, -149716.29824832658, -149605.74652025063, -149782.1464874919, -159293.596064281, -0.026000000000000002, -0.07200000000000001, 0.98, 192.0, 0.0, 0.0, 0.0, 0.0, 0.0, 0.0, 0.0, 0.0, 0.0, 1.7172367729214356E9, 0.0, 2024-06-01 03:12:52.921
88.0, -149649.8241603165, -149446.13271309528, -149668.75608787013, -149622.06329370302, -149717.34878031598, -149606.50647956211, -149783.42053692587, -159294.5571892926, -0.022, -0.07200000000000001, 0.98, 192.0, 255.0, 80.0, 253.0, 192.0, 30.0, 160.0, 0.0, 0.0, 0.0, 1.7172367729214432E9, 0.0, 2024-06-01 03:12:52.921
89.0, -149649.5782911275, -149445.64097471727, -149668.35375646994, -149621.50450009163, -149716.96880066025, -149605.8582789729, -149783.21937122577, -159293.88663695892, -0.022, -0.07200000000000001, 0.98, 192.0, 0.0, 0.0, 0.0, 0.0, 0.0, 0.0, 0.0, 0.0, 0.0, 1.7172367729214509E9, 0.0, 2024-06-01 03:12:52.921
90.0, -149649.8241603165, -149445.70802995062, -149668.64432914788, -149621.70566579173, -149717.3934838049, -149606.059444673, -149783.82286832607, -159294.1548578924, -0.022, -0.07200000000000001, 0.98, 192.0, 0.0, 0.0, 0.0, 0.0, 0.0, 0.0, 0.0, 0.0, 0.0, 1.7172367729214585E9, 0.0, 2024-06-01 03:12:52.921
91.0, -149649.4218289163, -149445.14923633926, -149668.2196460032, -149621.23627915815, -149717.14761461588, -149605.6124097839, -149783.97933053726, -159294.0430991701, -0.022, -0.07200000000000001, 0.98, 192.0, 0.0, 0.0, 0.0, 0.0, 0.0, 0.0, 0.0, 0.0, 0.0, 1.717236772921466E9, 0.0, 2024-06-01 03:12:52.921
92.0, -149649.19831147176, -149444.65749796122, -149667.99612855865, -149620.78924426905, -149716.9911524047, -149605.2100783837, -149784.13579274845, -159293.88663695892, -0.022, -0.07200000000000001, 0.98, 192.0, 0.0, 0.0, 0.0, 0.0, 0.0, 0.0, 0.0, 0.0, 0.0, 1.7172367729214737E9, 0.0, 2024-06-01 03:12:52.921
93.0, -149650.5617678835, -149445.64097471727, -149669.15841927033, -149621.79507276954, -149718.15344311637, -149606.1264999064, -149785.4992491602, -159294.66894801485, -0.022, -0.07200000000000001, 0.98, 192.0, 0.0, 0.0, 0.0, 0.0, 0.0, 0.0, 0.0, 0.0, 0.0, 1.7172367729214816E9, 0.0, 2024-06-01 03:12:52.921
94.0, -149649.1089044939, -149444.00929737202, -149667.70555588073, -149620.27515414657, -149716.81233844906, -149604.4724708167, -149784.33695844855, -159292.9925671807, -0.022, -0.07200000000000001, 0.98, 192.0, 0.0, 0.0, 0.0, 0.0, 0.0, 0.0, 0.0, 0.0, 0.0, 1.7172367729214892E9, 0.0, 2024-06-01 03:12:52.921
95.0, -149647.94661378226, -149442.55643398245, -149666.49856168014, -149618.97875296816, -149715.76180645966, -149603.19842138272, -149783.6440543704, -159291.98673868022, -0.022, -0.07200000000000001, 0.98, 192.0, 0.0, 0.0, 0.0, 0.0, 0.0, 0.0, 0.0, 0.0, 0.0, 1.7172367729214969E9, 0.0, 2024-06-01 03:12:52.921
96.0, -149648.6618696048, -149443.0705241049, -149667.19146575828, -149619.49284309064, -149716.70057972678, -149603.8242702275, -149784.87340031547, -159292.88080845843, -0.022, -0.07200000000000001, 0.98, 192.0, 0.0, 0.0, 0.0, 0.0, 0.0, 0.0, 0.0, 0.0, 0.0, 1.7172367729215045E9, 0.0, 2024-06-01 03:12:52.921
97.0, -149648.9747940272, -149443.1152275938, -149667.4373349473, -149619.5151948351, -149716.94644891578, -149603.8242702275, -149785.23102822676, -159292.81375322508, -0.022, -0.07200000000000001, 0.98, 192.0, 0.0, 0.0, 0.0, 0.0, 0.0, 0.0, 0.0, 0.0, 0.0, 1.717236772921512E9, 0.0, 2024-06-01 03:12:52.921
98.0, -149650.09238124997, -149443.9198903942, -149668.39845995884, -149620.29750589104, -149717.840518694, -149604.5171743056, -149786.48272591626, -159293.43960206982, -0.028, -0.07, 0.982, 192.0, 255.0, 32.0, 253.0, 208.0, 30.0, 176.0, 0.0, 0.0, 0.0, 1.7172367729215195E9, 0.0, 2024-06-01 03:12:52.921
99.0, -149649.310070194, -149443.025820616, -149667.75025936964, -149619.5151948351, -149717.21466984926, -149603.7125115052, -149786.23685672725, -159292.97021543625, -0.028, -0.07, 0.982, 192.0, 0.0, 0.0, 0.0, 0.0, 0.0, 0.0, 0.0, 0.0, 0.0, 1.7172367729215271E9, 0.0, 2024-06-01 03:12:52.921
100.0, -149651.09820975046, -149444.5680909834, -149669.5383989261, -149621.34803788044, -149719.2933820836, -149605.50065106162, -149788.51673466168, -159294.91481720385, -0.028, -0.07, 0.982, 192.0, 0.0, 0.0, 0.0, 0.0, 0.0, 0.0, 0.0, 0.0, 0.0, 1.7172367729215348E9, 0.0, 2024-06-01 03:12:52.921
101.0, -149651.8805208064, -149445.1268845948, -149670.25365474864, -149621.83977625845, -149719.9415826728, -149605.9253342063, -149789.3437492065, -159295.2500933707, -0.028, -0.07, 0.982, 192.0, 0.0, 0.0, 0.0, 0.0, 0.0, 0.0, 0.0, 0.0, 0.0, 1.7172367729215424E9, 0.0, 2024-06-01 03:12:52.921
102.0, -149650.29354695007, -149443.3163932939, -149668.55492217003, -149620.02928495756, -149718.26520183866, -149604.0701394165, -149787.89088581692, -159293.32784334754, -0.028, -0.07, 0.982, 192.0, 0.0, 0.0, 0.0, 0.0, 0.0, 0.0, 0.0, 0.0, 0.0, 1.71723677292155E9, 0.0, 2024-06-01 03:12:52.921
103.0, -149651.1652649838, -149444.03164911648, -149669.5383989261, -149620.90100299133, -149719.27103033912, -149604.89715396133, -149789.36610095098, -159294.49013405922, -0.028, -0.07, 0.982, 192.0, 0.0, 0.0, 0.0, 0.0, 0.0, 0.0, 0.0, 0.0, 0.0, 1.7172367729215577E9, 0.0, 2024-06-01 03:12:52.921
104.0, -149650.13708473888, -149442.89171014927, -149668.5325704256, -149619.78341576856, -149718.46636753876, -149603.84662197193, -149788.8967143174, -159293.7525264922, -0.028, -0.07, 0.982, 192.0, 0.0, 0.0, 0.0, 0.0, 0.0, 0.0, 0.0, 0.0, 0.0, 1.7172367734021592E9, 0.0, 2024-06-01 03:12:53.402
105.0, -149652.1710934843, -149444.6798497057, -149670.4771721932, -149621.6162588139, -149720.50037628418, -149605.50065106162, -149791.13188876296, -159295.54066604862, -0.028, -0.07, 0.982, 192.0, 0.0, 0.0, 0.0, 0.0, 0.0, 0.0, 0.0, 0.0, 0.0, 1.7172367734021914E9, 0.0, 2024-06-01 03:12:53.402
106.0, -149653.19927372926, -149445.48451250608, -149671.39359371588, -149622.44327335875, -149721.37209431792, -149606.1712033953, -149792.1600690079, -159296.12181140445, -0.028, -0.07, 0.982, 192.0, 0.0, 0.0, 0.0, 0.0, 0.0, 0.0, 0.0, 0.0, 0.0, 1.717236773402212E9, 0.0, 2024-06-01 03:12:53.402
107.0, -149652.28285220658, -149444.34457353887, -149670.5218756821, -149621.43744485825, -149720.52272802862, -149605.09831966143, -149791.6012753965, -159295.22774162624, -0.028, -0.07, 0.982, 192.0, 0.0, 0.0, 0.0, 0.0, 0.0, 0.0, 0.0, 0.0, 0.0, 1.7172367734022322E9, 0.0, 2024-06-01 03:12:53.402
108.0, -149651.567596384, -149443.271689805, -149669.7395646262, -149620.49867159114, -149719.96393441726, -149604.38306383885, -149791.3554062075, -159294.66894801485, -0.022, -0.068, 0.984, 192.0, 255.0, 80.0, 253.0, 224.0, 30.0, 192.0, 0.0, 0.0, 0.0, 1.7172367734022527E9, 0.0, 2024-06-01 03:12:53.402
109.0, -149652.43931441777, -149443.9198903942, -149670.49952393764, -149621.10216869143, -149720.81330070656, -149604.94185745023, -149792.51769691918, -159295.31714860405, -0.022, -0.068, 0.984, 192.0, 0.0, 0.0, 0.0, 0.0, 0.0, 0.0, 0.0, 0.0, 0.0, 1.7172367734022703E9, 0.0, 2024-06-01 03:12:53.402
110.0, -149652.34990743996, -149443.6293177163, -149670.4324687043, -149620.81159601352, -149720.72389372872, -149604.5171743056, -149792.51769691918, -159294.8477619705, -0.022, -0.068, 0.984, 192.0, 0.0, 0.0, 0.0, 0.0, 0.0, 0.0, 0.0, 0.0, 0.0, 1.7172367734022875E9, 0.0, 2024-06-01 03:12:53.402
111.0, -149652.50636965112, -149443.4728555051, -149670.49952393764, -149620.83394775796, -149720.94741117329, -149604.45011907222, -149792.852973086, -159294.89246545942, -0.022, -0.068, 0.984, 192.0, 0.0, 0.0, 0.0, 0.0, 0.0, 0.0, 0.0, 0.0, 0.0, 1.717236773402307E9, 0.0, 2024-06-01 03:12:53.402
112.0, -149652.2157969732, -149443.025820616, -149670.2760064931, -149620.49867159114, -149720.85800419547, -149604.09249116093, -149793.23295274176, -159294.98187243723, -0.022, -0.068, 0.984, 192.0, 0.0, 0.0, 0.0, 0.0, 0.0, 0.0, 0.0, 0.0, 0.0, 1.7172367734023287E9, 0.0, 2024-06-01 03:12:53.402
113.0, -149652.3275556955, -149442.89171014927, -149670.34306172648, -149620.40926461332, -149721.01446640666, -149604.04778767203, -149793.59058065302, -159294.91481720385, -0.022, -0.068, 0.984, 192.0, 0.0, 0.0, 0.0, 0.0, 0.0, 0.0, 0.0, 0.0, 0.0, 1.71723677340235E9, 0.0, 2024-06-01 03:12:53.402
114.0, -149653.89217780737, -149444.21046307212, -149671.840628605, -149621.72801753617, -149722.42262630732, -149605.29948536152, -149795.04344404262, -159296.09945966, -0.022, -0.068, 0.984, 192.0, 0.0, 0.0, 0.0, 0.0, 0.0, 0.0, 0.0, 0.0, 0.0, 1.7172367734023716E9, 0.0, 2024-06-01 03:12:53.402
115.0, -149654.0262882741, -149444.1210560943, -149671.90768383833, -149621.75036928063, -149722.60144026298, -149605.2100783837, -149795.46812718728, -159296.07710791554, -0.022, -0.068, 0.984, 192.0, 0.0, 0.0, 0.0, 0.0, 0.0, 0.0, 0.0, 0.0, 0.0, 1.7172367734023824E9, 0.0, 2024-06-01 03:12:53.402
116.0, -149653.0204597736, -149443.00346887155, -149670.90185533784, -149620.74454078014, -149721.75207397368, -149604.18189813875, -149795.02109229818, -159295.2947968596, -0.022, -0.068, 0.984, 192.0, 0.0, 0.0, 0.0, 0.0, 0.0, 0.0, 0.0, 0.0, 0.0, 1.717236773402392E9, 0.0, 2024-06-01 03:12:53.402
117.0, -149654.0262882741, -149443.60696597182, -149671.79592511605, -149621.43744485825, -149722.86966119643, -149604.98656093914, -149796.3621969655, -159296.18886663782, -0.022, -0.068, 0.984, 192.0, 0.0, 0.0, 0.0, 0.0, 0.0, 0.0, 0.0, 0.0, 0.0, 1.7172367734024017E9, 0.0, 2024-06-01 03:12:53.402
118.0, -149656.03794527508, -149445.30569855042, -149673.6287681614, -149623.15852918132, -149724.65780075287, -149606.5735347955, -149798.39620571092, -159297.7087852608, -0.026000000000000002, -0.07200000000000001, 0.984, 192.0, 255.0, 48.0, 253.0, 192.0, 30.0, 192.0, 0.0, 0.0, 0.0, 1.7172367734024112E9, 0.0, 2024-06-01 03:12:53.402
119.0, -149655.94853829726, -149445.03747761698, -149673.56171292803, -149622.89030824785, -149724.5907455195, -149606.23825862864, -149798.5526679221, -159297.5523230496, -0.026000000000000002, -0.07200000000000001, 0.984, 192.0, 0.0, 0.0, 0.0, 0.0, 0.0, 0.0, 0.0, 0.0, 0.0, 1.7172367734024222E9, 0.0, 2024-06-01 03:12:53.402
120.0, -149655.74737259716, -149444.7245531946, -149673.44995420575, -149622.71149429222, -149724.6801524973, -149605.99238943963, -149798.9102958334, -159297.5970265385, -0.026000000000000002, -0.07200000000000001, 0.984, 192.0, 0.0, 0.0, 0.0, 0.0, 0.0, 0.0, 0.0, 0.0, 0.0, 1.7172367734024322E9, 0.0, 2024-06-01 03:12:53.402
121.0, -149655.65796561932, -149444.4116287722, -149673.36054722793, -149622.53268033656, -149724.65780075287, -149605.83592722844, -149799.3126272336, -159297.57467479404, -0.026000000000000002, -0.07200000000000001, 0.984, 192.0, 0.0, 0.0, 0.0, 0.0, 0.0, 0.0, 0.0, 0.0, 0.0, 1.717236773402442E9, 0.0, 2024-06-01 03:12:53.402
122.0, -149655.6803173638, -149444.1657595832, -149673.24878850565, -149622.28681114755, -149724.61309726397, -149605.5230028061, -149799.37968246697, -159297.12763990494, -0.026000000000000002, -0.07200000000000001, 0.984, 192.0, 0.0, 0.0, 0.0, 0.0, 0.0, 0.0, 0.0, 0.0, 0.0, 1.7172367734024515E9, 0.0, 2024-06-01 03:12:53.402
123.0, -149655.8144278305, -149444.03164911648, -149673.3381954835, -149622.17505242527, -149724.6354490084, -149605.321837106, -149799.6031999115, -159296.99352943822, -0.026000000000000002, -0.07200000000000001, 0.984, 192.0, 0.0, 0.0, 0.0, 0.0, 0.0, 0.0, 0.0, 0.0, 0.0, 1.7172367734024615E9, 0.0, 2024-06-01 03:12:53.402
124.0, -149655.30033770806, -149443.24933806056, -149672.8911605944, -149621.70566579173, -149724.30017284158, -149604.7183400057, -149799.58084816707, -159296.72530850474, -0.026000000000000002, -0.07200000000000001, 0.984, 192.0, 0.0, 0.0, 0.0, 0.0, 0.0, 0.0, 0.0, 0.0, 0.0, 1.7172367734024713E9, 0.0, 2024-06-01 03:12:53.402
125.0, -149655.41209643031, -149443.0705241049, -149672.95821582773, -149621.66096230282, -149724.5460420306, -149604.78539523904, -149800.1619935229, -159296.9488259493, -0.026000000000000002, -0.07200000000000001, 0.984, 192.0, 0.0, 0.0, 0.0, 0.0, 0.0, 0.0, 0.0, 0.0, 0.0, 1.7172367734024804E9, 0.0, 2024-06-01 03:12:53.402
126.0, -149656.55203539753, -149443.94224213867, -149673.89698909485, -149622.37621812537, -149725.55187053108, -149605.6124097839, -149801.4583947013, -159297.77584049414, -0.026000000000000002, -0.07200000000000001, 0.984, 192.0, 0.0, 0.0, 0.0, 0.0, 0.0, 0.0, 0.0, 0.0, 0.0, 1.7172367734024904E9, 0.0, 2024-06-01 03:12:53.402
127.0, -149656.820256331, -149444.03164911648, -149674.0758030505, -149622.44327335875, -149725.75303623118, -149605.6124097839, -149801.8160226126, -159297.77584049414, -0.026000000000000002, -0.07200000000000001, 0.984, 192.0, 0.0, 0.0, 0.0, 0.0, 0.0, 0.0, 0.0, 0.0, 0.0, 1.7172367734025E9, 0.0, 2024-06-01 03:12:53.402
128.0, -149656.14970399736, -149443.13757933828, -149673.31584373902, -149621.72801753617, -149725.0824838975, -149604.7183400057, -149801.4136912124, -159296.99352943822, -0.022, -0.076, 0.98, 192.0, 255.0, 80.0, 253.0, 160.0, 30.0, 160.0, 0.0, 0.0, 0.0, 1.7172367734025092E9, 0.0, 2024-06-01 03:12:53.402
129.0, -149655.41209643031, -149442.1764543267, -149672.578236172, -149620.94570648024, -149724.50133854168, -149603.89132546083, -149801.10076679, -159296.47943931574, -0.022, -0.076, 0.98, 192.0, 0.0, 0.0, 0.0, 0.0, 0.0, 0.0, 0.0, 0.0, 0.0, 1.717236773402519E9, 0.0, 2024-06-01 03:12:53.402
130.0, -149655.63561387488, -149442.33291653788, -149672.7794018721, -149620.99040996915, -149724.81426296406, -149603.9583806942, -149801.59250516802, -159296.59119803802, -0.022, -0.076, 0.98, 192.0, 0.0, 0.0, 0.0, 0.0, 0.0, 0.0, 0.0, 0.0, 0.0, 1.7172367734025283E9, 0.0, 2024-06-01 03:12:53.402
131.0, -149656.3732214419, -149442.84700666036, -149673.4276024613, -149621.50450009163, -149725.4401118088, -149604.3607120944, -149802.5536301796, -159296.99352943822, -0.022, -0.076, 0.98, 192.0, 0.0, 0.0, 0.0, 0.0, 0.0, 0.0, 0.0, 0.0, 0.0, 1.717236773402538E9, 0.0, 2024-06-01 03:12:53.402
132.0, -149658.831913332, -149444.9257188947, -149675.70748039574, -149623.76202628162, -149727.8988036989, -149606.6182382844, -149805.3028947476, -159299.47457307274, -0.022, -0.076, 0.98, 192.0, 0.0, 0.0, 0.0, 0.0, 0.0, 0.0, 0.0, 0.0, 0.0, 1.7172367734025476E9, 0.0, 2024-06-01 03:12:53.402
133.0, -149659.70363136573, -149445.55156773946, -149676.55684668504, -149624.52198559308, -149728.837576966, -149607.3111423625, -149806.57694418158, -159300.3462911065, -0.022, -0.076, 0.98, 192.0, 0.0, 0.0, 0.0, 0.0, 0.0, 0.0, 0.0, 0.0, 0.0, 1.7172367734025571E9, 0.0, 2024-06-01 03:12:53.402
134.0, -149658.7201546097, -149444.4116287722, -149675.573369929, -149623.44910185924, -149727.9435071878, -149606.1712033953, -149805.92874359235, -159299.22870388374, -0.022, -0.076, 0.98, 192.0, 0.0, 0.0, 0.0, 0.0, 0.0, 0.0, 0.0, 0.0, 0.0, 1.717236773402567E9, 0.0, 2024-06-01 03:12:53.402
135.0, -149662.1846750003, -149447.6302799738, -149678.99318683066, -149626.66775306078, -149731.43037932282, -149609.43455808575, -149809.5720779386, -159302.42500334085, -0.022, -0.076, 0.98, 192.0, 0.0, 0.0, 0.0, 0.0, 0.0, 0.0, 0.0, 0.0, 0.0, 1.7172367734025762E9, 0.0, 2024-06-01 03:12:53.402
